2021-07-05 SQIB in 40mg/mL PMMA medium spin speed annealed at 180C
Wavelength (nm)	No6 10pct 180C	No7 4pct 180C
191.457733	0.009833	0.009946	
193.053986	0.006177	0.006079	
194.650345	0.003795	0.004162	
196.246765	0.003196	0.003757	
197.843262	0.002851	0.002867	
199.439835	0.002449	0.002532	
201.036469	0.002232	0.002047	
202.633194	0.002065	0.002136	
204.229980	0.001840	0.002038	
205.826859	0.001906	0.001867	
207.423782	0.001701	0.001799	
209.020782	0.001809	0.001739	
210.617874	0.001828	0.001670	
212.215012	0.001738	0.001732	
213.812225	0.001681	0.001642	
215.409500	0.001692	0.001715	
217.006866	0.001752	0.001743	
218.604279	0.001710	0.001771	
220.201752	0.001601	0.001576	
221.799316	0.001631	0.001601	
223.396927	0.001471	0.001645	
224.994598	0.001428	0.001452	
226.592361	0.001364	0.001500	
228.190155	0.001393	0.001436	
229.788040	0.001354	0.001428	
231.385986	0.001272	0.001238	
232.983978	0.001315	0.001319	
234.582062	0.001227	0.001354	
236.180176	0.001212	0.001134	
237.778351	0.001342	0.001290	
239.376617	0.001387	0.001352	
240.974899	0.001279	0.001237	
242.573273	0.001252	0.001307	
244.171677	0.001295	0.001376	
245.770172	0.001306	0.001448	
247.368698	0.001398	0.001464	
248.967316	0.001446	0.001534	
250.565964	0.001547	0.001624	
252.164673	0.001664	0.001678	
253.763428	0.001647	0.001772	
255.362228	0.001727	0.001888	
256.961121	0.002005	0.001964	
258.560028	0.001971	0.002030	
260.158997	0.002109	0.002258	
261.758026	0.002321	0.002388	
263.357117	0.002408	0.002383	
264.956238	0.002600	0.002480	
266.555450	0.002484	0.002661	
268.154663	0.002466	0.002886	
269.753967	0.002829	0.002859	
271.353271	0.003058	0.003156	
272.952667	0.002904	0.003246	
274.552094	0.003027	0.003372	
276.151550	0.003371	0.003357	
277.751099	0.003583	0.003638	
279.350647	0.003605	0.003696	
280.950256	0.003855	0.003929	
282.549927	0.003790	0.003989	
284.149628	0.003923	0.004078	
285.749390	0.004102	0.004257	
287.349182	0.004402	0.004766	
288.949005	0.004706	0.005070	
290.548889	0.005032	0.005243	
292.148804	0.007095	0.007000	
293.748749	0.009725	0.010138	
295.348755	0.014409	0.015023	
296.948792	0.020505	0.021079	
298.548889	0.029417	0.029946	
300.148987	0.040170	0.041021	
301.749146	0.053578	0.055059	
303.349335	0.071098	0.072700	
304.949554	0.092435	0.094724	
306.549835	0.116696	0.119362	
308.150146	0.144969	0.148496	
309.750458	0.175494	0.180229	
311.350861	0.209567	0.214708	
312.951233	0.244645	0.250188	
314.551697	0.280741	0.287076	
316.152161	0.317582	0.323884	
317.752686	0.354555	0.363044	
319.353210	0.390874	0.400483	
320.953796	0.426945	0.437517	
322.554382	0.463010	0.473990	
324.155029	0.501113	0.513567	
325.755676	0.526506	0.541511	
327.356384	0.551514	0.565390	
328.957092	0.576980	0.590626	
330.557861	0.601430	0.616080	
332.158630	0.624109	0.640721	
333.759430	0.645486	0.662816	
335.360260	0.663731	0.680763	
336.961121	0.680104	0.698467	
338.562012	0.695060	0.713703	
340.162903	0.707917	0.727245	
341.763855	0.720303	0.739759	
343.364807	0.731376	0.750236	
344.965759	0.741402	0.759530	
346.566772	0.748510	0.768925	
348.167786	0.757261	0.775054	
349.768860	0.763162	0.781705	
351.369904	0.768513	0.787203	
352.971008	0.772895	0.791109	
354.572083	0.776025	0.795495	
356.173218	0.779274	0.798264	
357.774353	0.781938	0.801205	
359.375519	0.783566	0.804758	
360.976685	0.785486	0.806817	
362.577881	0.789550	0.808746	
364.179108	0.791963	0.812427	
365.780334	0.795011	0.815190	
367.381561	0.798514	0.818454	
368.982849	0.801880	0.821106	
370.584106	0.804927	0.823334	
372.185364	0.806419	0.825559	
373.786682	0.809210	0.826356	
375.388000	0.809646	0.826833	
376.989319	0.809707	0.826350	
378.590637	0.809297	0.826567	
380.191986	0.809689	0.826424	
381.793365	0.809759	0.826074	
383.394714	0.810880	0.826478	
384.996094	0.811970	0.827833	
386.597473	0.811873	0.827547	
388.198853	0.812909	0.829256	
389.800232	0.813406	0.830409	
391.401672	0.814462	0.830880	
393.003082	0.815643	0.832311	
394.604492	0.816388	0.833487	
396.205902	0.817026	0.834372	
397.807312	0.818097	0.835190	
399.408752	0.820051	0.836097	
401.010193	0.821852	0.836846	
402.611633	0.822362	0.838103	
404.213074	0.823699	0.839979	
405.814514	0.825447	0.840146	
407.415955	0.825770	0.840294	
409.017395	0.826396	0.841072	
410.618835	0.827730	0.841065	
412.220276	0.828526	0.841551	
413.821716	0.828607	0.841078	
415.423157	0.828708	0.841930	
417.024597	0.829482	0.841684	
418.626038	0.830117	0.842249	
420.227448	0.830371	0.841732	
421.828918	0.830275	0.841209	
423.430328	0.831159	0.841960	
425.031738	0.831284	0.842491	
426.633148	0.831669	0.842560	
428.234558	0.832186	0.842743	
429.835938	0.832355	0.842989	
431.437347	0.833749	0.843774	
433.038727	0.834610	0.843967	
434.640076	0.835042	0.843780	
436.241455	0.835273	0.844394	
437.842834	0.835587	0.844993	
439.444183	0.836250	0.844787	
441.045502	0.836863	0.844701	
442.646820	0.837013	0.845247	
444.248138	0.837351	0.845216	
445.849457	0.837679	0.845897	
447.450745	0.838207	0.846109	
449.052002	0.838432	0.845984	
450.653259	0.839309	0.846282	
452.254547	0.839545	0.847156	
453.855774	0.839974	0.846796	
455.456970	0.840489	0.847239	
457.058197	0.840336	0.847538	
458.659363	0.841201	0.847615	
460.260559	0.841041	0.847749	
461.861664	0.841314	0.847902	
463.462830	0.841556	0.848446	
465.063904	0.841512	0.848532	
466.665039	0.842072	0.848307	
468.266113	0.841692	0.848758	
469.867126	0.842693	0.849581	
471.468170	0.842705	0.848710	
473.069183	0.842518	0.849465	
474.670166	0.842562	0.849335	
476.271149	0.842793	0.849809	
477.872070	0.842596	0.850057	
479.472992	0.842380	0.849868	
481.073883	0.842264	0.849820	
482.674744	0.842948	0.850108	
484.275574	0.842317	0.850076	
485.876404	0.843112	0.850540	
487.477203	0.842886	0.850512	
489.077942	0.841948	0.850331	
490.678650	0.842201	0.850504	
492.279388	0.841986	0.850852	
493.880035	0.841862	0.850870	
495.480713	0.841850	0.850733	
497.081299	0.840801	0.850605	
498.681885	0.840422	0.850556	
500.282410	0.840392	0.850317	
501.882965	0.840044	0.850565	
503.483459	0.839495	0.850305	
505.083893	0.838540	0.849647	
506.684326	0.837938	0.849788	
508.284729	0.837395	0.849165	
509.885071	0.836371	0.849194	
511.485352	0.835175	0.848963	
513.085632	0.834589	0.848614	
514.685913	0.833681	0.848462	
516.286072	0.832908	0.848012	
517.886292	0.831163	0.847263	
519.486450	0.830829	0.847064	
521.086487	0.828978	0.846150	
522.686584	0.827867	0.845462	
524.286560	0.826436	0.845209	
525.886536	0.824883	0.844596	
527.486450	0.822829	0.843283	
529.086365	0.821427	0.842043	
530.686218	0.819453	0.841176	
532.286011	0.817123	0.840033	
533.885803	0.815091	0.839230	
535.485474	0.812683	0.837481	
537.085144	0.810435	0.836074	
538.684814	0.807422	0.834510	
540.284363	0.804749	0.832434	
541.883911	0.801148	0.830935	
543.483398	0.798024	0.828819	
545.082886	0.795319	0.826908	
546.682251	0.791278	0.824842	
548.281616	0.787530	0.822667	
549.880920	0.783455	0.820227	
551.480164	0.779635	0.818261	
553.079346	0.775541	0.815609	
554.678528	0.770795	0.813381	
556.277649	0.766749	0.810864	
557.876648	0.761925	0.808485	
559.475647	0.757350	0.805760	
561.074585	0.751867	0.803320	
562.673462	0.746289	0.800433	
564.272339	0.741713	0.797460	
565.871094	0.735465	0.794448	
567.469849	0.729749	0.790714	
569.068481	0.723433	0.786843	
570.667114	0.716250	0.783028	
572.265686	0.708581	0.778582	
573.864136	0.700541	0.774418	
575.462646	0.692028	0.769427	
577.060974	0.682608	0.764156	
578.659302	0.672622	0.758186	
580.257629	0.661860	0.751331	
581.855835	0.650024	0.744420	
583.453979	0.637988	0.737444	
585.052063	0.624438	0.728718	
586.650024	0.610241	0.720653	
588.248047	0.595797	0.711381	
589.845947	0.580192	0.701967	
591.443726	0.564245	0.692382	
593.041565	0.547561	0.681769	
594.639282	0.530891	0.671577	
596.236877	0.514025	0.661048	
597.834473	0.497706	0.651201	
599.432007	0.481773	0.641305	
601.029419	0.466053	0.631802	
602.626770	0.451053	0.622511	
604.224060	0.436987	0.613681	
605.821350	0.423812	0.605599	
607.418518	0.411992	0.597544	
609.015564	0.400733	0.589869	
610.612671	0.390616	0.582822	
612.209595	0.381428	0.575481	
613.806519	0.372709	0.568553	
615.403259	0.364395	0.560408	
617.000061	0.355650	0.551507	
618.596741	0.345962	0.541019	
620.193298	0.335488	0.528841	
621.789856	0.323917	0.514598	
623.386292	0.310286	0.498430	
624.982666	0.295149	0.479994	
626.578979	0.279008	0.459673	
628.175171	0.262161	0.437360	
629.771362	0.244706	0.413918	
631.367371	0.227348	0.390001	
632.963379	0.210567	0.365404	
634.559265	0.194302	0.341392	
636.155151	0.179364	0.317956	
637.750854	0.165382	0.295436	
639.346558	0.152570	0.274836	
640.942139	0.141201	0.255396	
642.537659	0.131524	0.238391	
644.133057	0.123071	0.223168	
645.728394	0.115658	0.210364	
647.323669	0.109695	0.199795	
648.918823	0.104741	0.191681	
650.513977	0.101066	0.185492	
652.109009	0.098507	0.181889	
653.703918	0.097075	0.180685	
655.298706	0.097004	0.182350	
656.893433	0.098342	0.186532	
658.488159	0.100172	0.191956	
660.082703	0.103106	0.199499	
661.677185	0.108268	0.211673	
663.271606	0.115414	0.228107	
664.865906	0.124062	0.247397	
666.460144	0.134450	0.269677	
668.054321	0.147114	0.295385	
669.648315	0.162173	0.324621	
671.242310	0.179654	0.356636	
672.836121	0.200204	0.391405	
674.429871	0.223378	0.428158	
676.023560	0.249456	0.466088	
677.617126	0.278425	0.504565	
679.210571	0.310083	0.542835	
680.804016	0.343907	0.579898	
682.397339	0.379829	0.615371	
683.990479	0.416441	0.647495	
685.583618	0.454093	0.677586	
687.176636	0.491492	0.704640	
688.769470	0.527306	0.728035	
690.362305	0.562289	0.748522	
691.955017	0.594817	0.766671	
693.547607	0.624579	0.781308	
695.140137	0.652353	0.793840	
696.732544	0.676600	0.805186	
698.324829	0.698294	0.814001	
699.917053	0.716688	0.821457	
701.509155	0.732962	0.827293	
703.101196	0.746701	0.832786	
704.693054	0.758354	0.837197	
706.284851	0.768821	0.841495	
707.876587	0.777701	0.844703	
709.468140	0.785205	0.847361	
711.059631	0.791578	0.849507	
712.651001	0.797412	0.851395	
714.242249	0.802099	0.853253	
715.833374	0.806137	0.854790	
717.424438	0.809961	0.856041	
719.015442	0.813748	0.857770	
720.606262	0.816947	0.858955	
722.196960	0.818823	0.859289	
723.787598	0.821607	0.860698	
725.378052	0.822981	0.861037	
726.968445	0.825277	0.861589	
728.558716	0.827057	0.862831	
730.148926	0.829107	0.863086	
731.738953	0.830856	0.863471	
733.328918	0.832753	0.864669	
734.918762	0.833529	0.864769	
736.508423	0.835138	0.864861	
738.098022	0.835828	0.865257	
739.687561	0.837488	0.865612	
741.276917	0.837768	0.866136	
742.866150	0.838490	0.865721	
744.455322	0.839627	0.866348	
746.044312	0.840217	0.866342	
747.633179	0.840582	0.866586	
749.221985	0.841813	0.867408	
750.810669	0.842029	0.866550	
752.399170	0.843095	0.867367	
753.987610	0.843500	0.867210	
755.575867	0.843550	0.867064	
757.164063	0.844550	0.868098	
758.752136	0.845155	0.867735	
760.340027	0.845689	0.867258	
761.927856	0.845396	0.867294	
763.515503	0.846204	0.867653	
765.103149	0.846887	0.867870	
766.690552	0.846787	0.867668	
768.277832	0.846958	0.867935	
769.865051	0.847744	0.867571	
771.452026	0.847757	0.867580	
773.039001	0.847791	0.868445	
774.625793	0.848205	0.867577	
776.212463	0.848402	0.867600	
777.799011	0.849127	0.867424	
779.385376	0.848791	0.867348	
780.971680	0.848895	0.867704	
782.557861	0.849079	0.867652	
784.143860	0.849302	0.867557	
785.729736	0.848652	0.867428	
787.315491	0.848597	0.867719	
788.901123	0.849210	0.866931	
790.486633	0.849727	0.867097	
792.071960	0.849716	0.867160	
793.657166	0.849817	0.866868	
795.242249	0.849812	0.867052	
796.827209	0.849732	0.866596	
798.411987	0.849704	0.866842	
799.996704	0.850073	0.866777	
801.581177	0.850321	0.866912	
803.165649	0.850867	0.866933	
804.749878	0.850695	0.866344	
806.333984	0.850401	0.866644	
807.917969	0.849632	0.866670	
809.501831	0.850679	0.866768	
811.085510	0.850045	0.866282	
812.669067	0.850379	0.866857	
814.252502	0.849477	0.866652	
815.835754	0.849788	0.866200	
817.418884	0.850485	0.865837	
819.001831	0.850539	0.865579	
820.584656	0.850575	0.865432	
822.167358	0.851239	0.865285	
823.750000	0.850911	0.866153	
825.332336	0.850248	0.866430	
826.914673	0.850563	0.865709	
828.496704	0.850945	0.866233	
830.078735	0.851539	0.866656	
831.660522	0.850836	0.865786	
833.242188	0.850412	0.865693	
834.823730	0.851149	0.866695	
836.405090	0.851035	0.865824	
837.986206	0.850229	0.865843	
839.567261	0.851139	0.865735	
841.148254	0.851303	0.865719	
842.729004	0.851389	0.865525	
844.309570	0.851324	0.865258	
845.890015	0.852204	0.865225	
847.470398	0.850750	0.865716	
849.050476	0.851501	0.865277	
850.630493	0.851188	0.865899	
852.210327	0.850866	0.865288	
853.790039	0.851168	0.865433	
855.369507	0.851402	0.865375	
856.948914	0.851048	0.865015	
858.528137	0.851278	0.866098	
860.107239	0.851197	0.864899	
861.686035	0.851642	0.864603	
863.264832	0.850581	0.865631	
864.843384	0.851838	0.865224	
866.421753	0.852031	0.865704	
868.000000	0.851548	0.865252	
869.578125	0.851333	0.865088	
871.156067	0.851360	0.865702	
872.733765	0.852416	0.864196	
874.311401	0.851660	0.865079	
875.888855	0.851665	0.864783	
877.466125	0.850975	0.864434	
879.043274	0.852548	0.864582	
880.620239	0.851784	0.865964	
882.196960	0.851569	0.865067	
883.773560	0.852487	0.864446	
885.349976	0.851504	0.865087	
886.926270	0.852401	0.865430	
888.502319	0.852584	0.865238	
890.078308	0.851780	0.865380	
891.654114	0.852812	0.865093	
893.229675	0.852050	0.865819	
894.805054	0.852035	0.864564	
896.380371	0.852463	0.864477	
897.955444	0.852637	0.864980	
899.530396	0.852411	0.865033	
901.105103	0.853134	0.865564	
902.679565	0.852789	0.864146	
904.254028	0.852509	0.865688	
905.828247	0.852705	0.864881	
907.402222	0.853552	0.865062	
908.976196	0.853193	0.864835	
910.549805	0.852487	0.865453	
912.123352	0.851550	0.864892	
913.696655	0.853143	0.864901	
915.269836	0.853558	0.864469	
916.842773	0.853119	0.864866	
918.415649	0.853364	0.864724	
919.988159	0.853094	0.865255	
921.560669	0.853601	0.864445	
923.132935	0.852902	0.864570	
924.704956	0.852780	0.864000	
926.276855	0.851852	0.864618	
927.848511	0.853512	0.864712	
929.420105	0.853623	0.864556	
930.991394	0.853122	0.864090	
932.562622	0.853048	0.864067	
934.133606	0.853800	0.864680	
935.704407	0.853066	0.863580	
937.275024	0.853126	0.866093	
938.845398	0.853374	0.864183	
940.415649	0.853418	0.864361	
941.985657	0.853154	0.866050	
943.555481	0.853656	0.865307	
945.125183	0.852314	0.863740	
946.694641	0.852452	0.864306	
948.263977	0.852252	0.864403	
949.833008	0.854333	0.864208	
951.401978	0.853607	0.864240	
952.970581	0.853819	0.863505	
954.539185	0.854400	0.864277	
956.107544	0.854380	0.866361	
957.675659	0.854108	0.864081	
959.243530	0.853225	0.864870	
960.811340	0.852969	0.865763	
962.378906	0.854354	0.866688	
963.946167	0.854753	0.866330	
965.513367	0.853319	0.865659	
967.080383	0.855314	0.865744	
968.647156	0.854590	0.865297	
970.213684	0.855692	0.864037	
971.780090	0.853715	0.865472	
973.346313	0.854032	0.865093	
974.912231	0.855026	0.866713	
976.478027	0.855169	0.865537	
978.043579	0.854439	0.865077	
979.609009	0.855189	0.864334	
981.174133	0.856288	0.864881	
982.739075	0.855288	0.865098	
984.303833	0.855123	0.866247	
985.868347	0.853951	0.866051	
987.432739	0.856213	0.864663	
988.996887	0.855465	0.863971	
990.560852	0.854328	0.864233	
992.124634	0.854138	0.866702	
993.688171	0.854137	0.864418	
995.251465	0.854013	0.864730	
996.814575	0.857652	0.865374	
998.377563	0.854411	0.865693	
999.940247	0.855408	0.864284	
1013.382019	0.853378	0.865795	
1016.810181	0.854300	0.866639	
1020.238159	0.852830	0.866627	
1023.666199	0.855151	0.865380	
1027.094238	0.853808	0.866215	
1030.522217	0.853644	0.865422	
1033.950073	0.853537	0.867299	
1037.378174	0.854238	0.866155	
1040.805908	0.855898	0.866142	
1044.233887	0.855588	0.866520	
1047.661865	0.857008	0.866776	
1051.089722	0.856203	0.868182	
1054.517578	0.854959	0.866718	
1057.945557	0.857020	0.867654	
1061.373413	0.858572	0.869306	
1064.801392	0.855945	0.867885	
1068.229248	0.863209	0.873380	
1071.657227	0.858474	0.869790	
1075.085205	0.865512	0.876441	
1078.513184	0.861390	0.872850	
1081.941162	0.868139	0.878536	
1085.369263	0.865859	0.874730	
1088.797241	0.869379	0.879033	
1092.225342	0.867244	0.877072	
1095.653564	0.872254	0.878867	
1099.081787	0.870042	0.879452	
1102.510010	0.870315	0.879009	
1105.938232	0.870579	0.879672	
1109.366577	0.869458	0.880229	
1112.795044	0.871136	0.881178	
1116.223389	0.870329	0.879543	
1119.651978	0.872824	0.881567	
1123.080566	0.871848	0.879273	
1126.509155	0.870955	0.882390	
1129.937866	0.869443	0.879729	
1133.366699	0.873492	0.881893	
1136.795654	0.870756	0.879641	
1140.224487	0.873823	0.882375	
1143.653564	0.871975	0.879842	
1147.082764	0.872989	0.881560	
1150.511963	0.870689	0.880352	
1153.941162	0.874210	0.882129	
1157.370605	0.871193	0.880744	
1160.800049	0.874100	0.882441	
1164.229736	0.871901	0.879606	
1167.659424	0.875866	0.882616	
1171.089233	0.871823	0.880136	
1174.519165	0.875794	0.883329	
1177.949219	0.872065	0.879964	
1181.379395	0.875254	0.883149	
1184.809814	0.870780	0.879614	
1188.240112	0.875973	0.884112	
1191.670654	0.871375	0.880654	
1195.101318	0.877696	0.884506	
1198.532227	0.871927	0.879751	
1201.963135	0.876829	0.884784	
1205.394287	0.871183	0.879499	
1208.825562	0.877224	0.885058	
1212.256958	0.871444	0.879391	
1215.688477	0.877688	0.885522	
1219.120239	0.871894	0.880194	
1222.552124	0.878161	0.885304	
1225.984131	0.873067	0.881499	
1229.416260	0.876316	0.885117	
1232.848755	0.873281	0.881047	
1236.281250	0.878020	0.885761	
1239.713989	0.874057	0.880879	
1243.146851	0.878669	0.886225	
1246.579956	0.875065	0.881358	
1250.013306	0.879846	0.886603	
1253.446655	0.872644	0.881761	
1256.880371	0.879369	0.887136	
1260.314209	0.874344	0.882807	
1263.748291	0.880635	0.886444	
1267.182495	0.875773	0.882338	
1270.616943	0.881199	0.887386	
1274.051514	0.875648	0.882431	
1277.486450	0.881612	0.887969	
1280.921631	0.875213	0.882827	
1284.356812	0.881338	0.889421	
1287.792358	0.874919	0.883671	
1291.228149	0.883053	0.888737	
1294.664063	0.873452	0.883365	
1298.100342	0.881906	0.890560	
1301.536743	0.875601	0.882379	
1304.973389	0.885572	0.891654	
1308.410400	0.876671	0.883418	
1311.847534	0.885027	0.891352	
1315.284912	0.879009	0.885134	
1318.722534	0.884501	0.893179	
1322.160522	0.877033	0.886035	
1325.598755	0.886861	0.894023	
1329.037109	0.880631	0.885706	
1332.475830	0.886279	0.893647	
1335.914795	0.879942	0.885855	
1339.354004	0.886725	0.893362	
1342.793579	0.882098	0.887610	
1346.233276	0.887480	0.893307	
1349.673462	0.881113	0.889596	
1353.113770	0.885958	0.892960	
1356.554443	0.885396	0.894052	
1359.995361	0.883011	0.890613	
1363.436523	0.888290	0.894414	
1366.878052	0.876457	0.884081	
1370.319824	0.889198	0.895454	
1373.761963	0.879336	0.886448	
1377.204346	0.889890	0.896386	
1380.647217	0.871414	0.881546	
1384.090210	0.875602	0.885447	
1387.533569	0.872288	0.882192	
1390.977295	0.880738	0.887581	
1394.421265	0.875497	0.881935	
1397.865601	0.883881	0.891214	
1401.310303	0.872341	0.881162	
1404.755249	0.886882	0.895483	
1408.200562	0.875273	0.883673	
1411.646240	0.892333	0.899424	
1415.092285	0.884718	0.891340	
1418.538574	0.892409	0.899361	
1421.985352	0.882894	0.889844	
1425.432373	0.895524	0.900686	
1428.879761	0.883841	0.890048	
1432.327515	0.893189	0.899854	
1435.775635	0.883305	0.891273	
1439.224243	0.894491	0.900963	
1442.673096	0.886358	0.894379	
1446.122314	0.894184	0.900582	
1449.571899	0.883126	0.889637	
1453.021851	0.896497	0.903673	
1456.472290	0.883534	0.893212	
1459.923096	0.895593	0.902199	
1463.374268	0.884136	0.892556	
1466.825684	0.896185	0.902709	
1470.277588	0.887132	0.892104	
1473.729980	0.898931	0.903589	
1477.182739	0.886728	0.892676	
1480.635864	0.895773	0.903853	
1484.089355	0.884732	0.891552	
1487.543335	0.895867	0.902245	
1490.997681	0.882984	0.888683	
1494.452393	0.895224	0.904136	
1497.907715	0.880656	0.888727	
1501.363281	0.895157	0.902356	
1504.819336	0.883140	0.888027	
1508.275879	0.892245	0.899817	
1511.732788	0.881518	0.889897	
1515.190186	0.896099	0.902459	
1518.647949	0.880580	0.890178	
1522.106201	0.890157	0.896919	
1525.564819	0.882899	0.890040	
1529.024048	0.889489	0.894519	
1532.483643	0.882367	0.890497	
1535.943604	0.883584	0.891258	
1539.404053	0.884485	0.891971	
1542.865112	0.888574	0.889951	
1546.326538	0.887160	0.892160	
1549.788330	0.885147	0.890462	
1553.250732	0.885831	0.892079	
1556.713623	0.883492	0.889964	
1560.177002	0.885284	0.894308	
1563.640869	0.882740	0.889396	
1567.105103	0.887993	0.894540	
1570.569946	0.884675	0.890254	
1574.035156	0.887265	0.896295	
1577.500977	0.885667	0.892596	
1580.967163	0.886499	0.895771	
1584.433960	0.887603	0.893702	
1587.901245	0.887827	0.895516	
1591.369019	0.886236	0.894105	
1594.837402	0.890464	0.893676	
1598.306152	0.887226	0.895432	
1601.775513	0.888640	0.896789	
1605.245361	0.885812	0.893970	
1608.715698	0.887916	0.895829	
1612.186768	0.887422	0.896079	
1615.658081	0.890893	0.895208	
1619.130127	0.889135	0.895337	
1622.602661	0.889459	0.895498	
1626.075684	0.889624	0.895612	
1629.549194	0.888187	0.896774	
1633.023438	0.890156	0.898313	
1636.498169	0.892232	0.895787	
1639.973389	0.893390	0.896591	
1643.449219	0.891601	0.896350	
1646.925537	0.891397	0.897244	
1650.402588	0.888191	0.896349	
1653.880127	0.887545	0.896069	
1657.358032	0.889583	0.898409	
1660.836670	0.889497	0.894894	
1664.316040	0.889793	0.896805	
1667.795654	0.892068	0.897471	
1671.276123	0.891815	0.897393	
1674.757080	0.891056	0.897124	
1678.238647	0.888321	0.896213	
1681.720947	0.892484	0.897465	
1685.203491	0.891201	0.896099	
1688.686890	0.892084	0.898231	