SPECTRUM DATA FILE
SpectrumCount:	1
PixelCount:	2500
UserName:	Laser
SampleName:	
LightSource:	
Comments:	
DeviceName:	Qmini
DeviceManufacturer:	Broadcom
DeviceSerialNo:	21144

Name:	last spectrum
Date:	2023-10-20T10:56:55.7899739+02:00
ExposureTime:	0.04946
TemporalAvg:	2
IntensityUnit:	normalizedCounts
CCDLoadLevel:	0.8135647
Temperature:	24.74313
DiagramColor:	200
ProcessingSteps:	847

Wavelength [nm]	Intensity1
294.2074	-2.000372
294.5497	-1.171444
294.8921	-0.1024394
295.2344	0.7219375
295.5767	-0.632992
295.919	-1.437173
296.2613	-1.486318
296.6036	-0.6157417
296.9458	0.09054749
297.2881	-0.5180686
297.6304	0.09655819
297.9727	-0.5830948
298.3149	-0.1416662
298.6571	-1.920341
298.9994	-0.455625
299.3416	1.542639
299.6838	1.58223
300.026	0.4391505
300.3683	-0.04323382
300.7104	0.753943
301.0526	-0.5947658
301.3948	0.4629321
301.737	1.087889
302.0792	0.1737521
302.4213	-0.6408445
302.7635	0.4589855
303.1056	1.451009
303.4478	-0.1546327
303.7899	-0.7341599
304.132	0.06522197
304.4742	0.2641605
304.8163	0.1328931
305.1584	-0.3491937
305.5005	-0.4441359
305.8426	-0.7199022
306.1846	-0.327834
306.5267	-0.3932036
306.8688	-0.07596384
307.2108	0.05329486
307.5529	0.1763786
307.8949	0.157848
308.237	-0.6322736
308.579	-1.090552
308.921	-1.068777
309.263	-0.6027344
309.605	-0.9396001
309.947	-0.6091386
310.289	-0.4893758
310.631	0.4953554
310.973	0.5925873
311.3149	1.051486
311.6569	0.1993811
311.9988	0.04467672
312.3408	-0.4359646
312.6827	0.8414195
313.0247	1.140613
313.3666	1.233942
313.7085	1.602809
314.0504	1.913488
314.3923	1.523252
314.7342	-0.1224352
315.0761	-0.223235
315.418	-0.1642568
315.7599	-0.2662339
316.1017	0.8605386
316.4436	2.277222
316.7854	2.018837
317.1273	-0.6241586
317.4691	-0.07926898
317.8109	0.1720738
318.1527	2.307999
318.4945	1.335381
318.8363	0.9963044
319.1781	-0.04636844
319.5199	0.5634553
319.8617	0.07237526
320.2035	0.6999027
320.5452	0.9775771
320.887	-0.6215154
321.2287	-1.658447
321.5705	-1.095495
321.9122	0.4423749
322.2539	0.679621
322.5956	0.1755475
322.9374	-1.015393
323.2791	-0.8867229
323.6208	-0.3180705
323.9625	1.2476
324.3041	-0.326537
324.6458	-0.8333625
324.9875	-1.657066
325.3291	-0.1307814
325.6708	0.2720575
326.0124	1.553877
326.354	0.6727316
326.6957	-1.066759
327.0373	-1.028329
327.3789	-0.7327177
327.7205	-0.4893221
328.0621	-0.7271947
328.4037	0.6203502
328.7453	1.356029
329.0869	1.298711
329.4284	0.7848235
329.77	0.8858364
330.1115	1.359683
330.4531	1.326608
330.7946	0.007175743
331.1361	-0.7517573
331.4776	-1.024291
331.8191	-0.2396059
332.1606	0.538711
332.5021	1.837104
332.8436	1.251567
333.1851	0.08989032
333.5266	-0.6076732
333.868	-0.16954
334.2095	-0.5191665
334.5509	0.1770557
334.8924	-0.3557343
335.2338	0.1187371
335.5752	-0.1218573
335.9167	1.677641
336.2581	1.178497
336.5995	0.4748378
336.9409	-0.1339239
337.2822	-0.1095114
337.6236	-0.9280134
337.965	-1.25741
338.3063	-0.1625624
338.6477	1.011397
338.989	0.1593995
339.3304	-0.776778
339.6717	-1.603743
340.013	-0.3625118
340.3543	0.7493652
340.6956	0.6115651
341.037	0.8414772
341.3782	1.342001
341.7195	1.622028
342.0608	0.3385283
342.4021	0.4719907
342.7433	0.3648332
343.0846	-0.1681453
343.4258	-0.5250807
343.7671	0.4123898
344.1083	1.081427
344.4495	0.8730671
344.7907	-0.3776016
345.1319	-0.06774159
345.4731	0.9840526
345.8143	1.850036
346.1555	1.218446
346.4966	1.261615
346.8378	0.6205357
347.179	-0.7721244
347.5201	-1.474164
347.8613	0.9343334
348.2024	2.344477
348.5435	1.437187
348.8846	-0.1437599
349.2257	-0.7488729
349.5668	-0.8203759
349.9079	-0.2830452
350.249	0.2612142
350.5901	-0.1801375
350.9312	0.2730942
351.2722	1.331843
351.6133	1.237464
351.9543	0.1480381
352.2953	0.2003332
352.6364	-0.188131
352.9774	-0.002747298
353.3184	0.902986
353.6594	2.459065
354.0004	1.041764
354.3414	-0.3285463
354.6824	-0.7553184
355.0233	-0.6012068
355.3643	-0.01307431
355.7053	0.9109023
356.0462	1.012215
356.3871	0.0009163075
356.7281	-0.2984169
357.069	0.2007453
357.4099	0.7379676
357.7508	0.5410839
358.0917	0.3296465
358.4326	0.9037132
358.7735	1.220239
359.1144	0.4035084
359.4553	0.3098405
359.7961	0.9686595
360.137	0.9937754
360.4778	0.1798856
360.8186	0.005991402
361.1595	0.4002031
361.5003	-0.1221084
361.8411	-0.3077801
362.1819	-0.2659364
362.5227	0.1749458
362.8635	0.3569117
363.2043	0.1816905
363.545	0.7359728
363.8858	0.552443
364.2265	-0.3783864
364.5673	-0.1505648
364.908	1.927089
365.2487	2.199024
365.5894	0.7453437
365.9302	-0.3952931
366.2709	-0.5949057
366.6116	0.05538474
366.9522	1.552321
367.2929	1.147257
367.6336	1.38737
367.9743	1.812705
368.3149	2.087513
368.6556	1.937687
368.9962	1.778266
369.3368	-0.2092776
369.6775	-1.521125
370.0181	-0.5425286
370.3587	0.2532835
370.6993	1.873988
371.0399	1.456954
371.3804	0.6146598
371.721	-1.291264
372.0616	-0.6177681
372.4021	-0.5958524
372.7427	0.3181942
373.0832	0.7226132
373.4237	0.3120409
373.7643	-0.5796769
374.1048	-1.16665
374.4453	0.2668748
374.7858	0.46453
375.1263	-0.4136546
375.4667	-1.359296
375.8072	0.09475283
376.1477	0.852669
376.4881	0.5770563
376.8286	0.06390349
377.169	-0.1509781
377.5095	0.7121254
377.8499	1.587781
378.1903	0.7338783
378.5307	-1.152974
378.8711	-0.1779844
379.2115	1.460942
379.5519	1.59935
379.8922	1.237925
380.2326	1.578117
380.573	1.255829
380.9133	0.1064076
381.2536	0.2372533
381.594	0.1139852
381.9343	0.2543019
382.2746	0.4720769
382.6149	0.2148267
382.9552	-1.00924
383.2955	-1.952253
383.6358	-0.9708107
383.976	-0.9285494
384.3163	-0.6243159
384.6566	-1.059855
384.9968	0.6045366
385.337	0.9482422
385.6773	1.271738
386.0175	0.7228048
386.3577	0.7847986
386.6979	0.03091775
387.0381	0.2282239
387.3783	0.7578543
387.7185	0.3465463
388.0587	-0.3548041
388.3988	0.07310511
388.739	0.4826362
389.0791	-0.07842365
389.4193	0.7205675
389.7594	0.9234859
390.0995	0.9777464
390.4396	0.196009
390.7797	0.5719299
391.1198	-0.4124863
391.4599	0.2355265
391.8	0.9682309
392.14	1.028266
392.4801	0.1022144
392.8201	0.2213399
393.1602	0.8393086
393.5002	1.463016
393.8402	0.9316588
394.1802	-0.5775212
394.5203	-0.9305036
394.8603	0.2016532
395.2003	1.431922
395.5402	1.320632
395.8802	1.555573
396.2202	1.291368
396.5601	1.699306
396.9001	0.02587693
397.24	0.4731132
397.58	-0.05464488
397.9199	1.075725
398.2598	-0.6287832
398.5997	0.8785655
398.9396	0.2688147
399.2795	0.2800053
399.6194	-0.7056096
399.9592	-0.5573512
400.2991	-0.2600392
400.6389	0.1056749
400.9788	1.535694
401.3186	2.009077
401.6584	1.229114
401.9983	0.6844836
402.3381	1.140916
402.6779	2.095107
403.0177	0.2290775
403.3575	-1.027184
403.6972	-0.3624554
404.037	0.9808626
404.3768	0.9020442
404.7165	-0.9596639
405.0562	-1.462812
405.396	-1.380584
405.7357	1.178964
406.0754	2.560212
406.4151	2.526753
406.7548	0.5589095
407.0945	-0.05975594
407.4342	0.5755256
407.7739	0.7255406
408.1135	0.6868721
408.4532	-0.2356359
408.7928	0.4521653
409.1325	-0.4050524
409.4721	0.2753039
409.8117	0.8102091
410.1513	2.032512
410.4909	1.233523
410.8305	0.6388918
411.1701	0.2531491
411.5097	-0.2629274
411.8492	-2.053457
412.1888	-1.526007
412.5284	0.03418384
412.8679	1.56911
413.2074	1.353504
413.5469	2.221115
413.8865	1.450021
414.226	0.5725498
414.5655	0.1100405
414.9049	0.6784652
415.2444	-0.3619745
415.5839	-0.07545692
415.9234	-0.3854658
416.2628	-0.4392772
416.6023	-0.5303593
416.9417	0.1667723
417.2811	0.6624961
417.6205	2.44251
417.9599	1.97013
418.2993	0.1005901
418.6387	-1.392403
418.9781	0.03966635
419.3175	1.384825
419.6569	1.786794
419.9962	0.8960808
420.3355	-0.7589539
420.6749	0.4887655
421.0142	0.6888282
421.3535	0.316653
421.6928	-0.2895273
422.0321	0.4913151
422.3714	0.1627464
422.7107	0.5800101
423.05	2.009775
423.3893	2.028058
423.7285	1.672166
424.0678	2.073015
424.407	2.294705
424.7462	1.202401
425.0854	0.1322705
425.4247	0.3719626
425.7639	2.018478
426.1031	2.485717
426.4423	1.837379
426.7814	0.1604459
427.1206	1.470567
427.4597	1.012544
427.7989	1.864101
428.1381	0.8738517
428.4772	2.758509
428.8163	2.220956
429.1554	2.38617
429.4945	1.156894
429.8336	1.503823
430.1727	1.407293
430.5118	1.043154
430.8509	1.301986
431.1899	1.876752
431.529	3.105226
431.868	3.308281
432.207	2.329748
432.5461	1.488027
432.8851	2.497537
433.2241	1.886904
433.5631	1.578197
433.9021	1.550434
434.2411	2.669105
434.58	1.765978
434.919	1.678148
435.2579	1.561683
435.5969	1.999896
435.9358	2.385838
436.2747	1.52804
436.6136	1.086133
436.9525	1.267645
437.2914	1.474365
437.6303	1.267329
437.9692	1.789645
438.3081	1.402606
438.6469	1.191647
438.9858	1.567054
439.3246	0.8145139
439.6635	0.3857567
440.0023	-0.346174
440.3411	-0.5739954
440.6799	-0.9283988
441.0187	0.7026913
441.3575	1.845429
441.6963	1.537391
442.035	2.55307
442.3738	1.485104
442.7126	1.053048
443.0513	0.09561574
443.39	1.302964
443.7288	1.957635
444.0675	2.780165
444.4062	2.632668
444.7449	0.8558356
445.0836	0.2984263
445.4222	0.8390544
445.7609	1.695338
446.0996	2.197274
446.4382	2.120691
446.7769	1.895921
447.1155	1.614884
447.4541	2.044116
447.7927	1.258435
448.1313	1.063432
448.4699	1.091879
448.8085	2.353018
449.1471	2.564341
449.4857	2.995661
449.8242	0.991194
450.1628	1.558428
450.5013	1.180588
450.8398	1.73648
451.1783	0.8412406
451.5169	3.210207
451.8554	3.275062
452.1938	3.330889
452.5323	0.7458586
452.8708	1.113952
453.2093	1.255323
453.5477	2.112138
453.8862	1.437956
454.2246	1.178719
454.563	-0.390527
454.9015	-0.2547857
455.2399	0.9023701
455.5783	0.6002348
455.9167	-0.3028582
456.255	-0.5723324
456.5934	0.4359743
456.9318	1.102919
457.2701	2.1392
457.6085	1.83369
457.9468	0.768916
458.2852	1.461302
458.6235	1.271522
458.9618	1.290297
459.3	0.90215
459.6383	2.392979
459.9766	2.271708
460.3149	1.770988
460.6532	0.7802882
460.9914	1.035289
461.3297	1.488405
461.6679	2.813131
462.0061	2.152092
462.3443	2.434627
462.6825	1.959789
463.0207	2.604388
463.3589	1.487816
463.6971	2.123212
464.0352	1.900914
464.3734	3.712341
464.7115	2.516537
465.0497	1.017922
465.3878	0.08321893
465.7259	1.221887
466.064	1.44273
466.4021	0.280985
466.7402	0.2866926
467.0783	0.5018526
467.4164	1.610906
467.7545	2.150379
468.0925	1.516246
468.4305	0.0943533
468.7686	-0.1164593
469.1066	1.265969
469.4446	2.487664
469.7826	1.812137
470.1206	1.135585
470.4586	0.9596184
470.7966	1.116852
471.1346	1.761401
471.4725	1.394404
471.8105	0.8160675
472.1484	0.8366354
472.4863	1.293098
472.8242	1.060568
473.1621	-0.004739288
473.5	0.5591463
473.838	1.556315
474.1758	1.867805
474.5137	1.545876
474.8516	1.233524
475.1894	0.6715096
475.5273	-0.2784074
475.8651	0.4204724
476.2029	1.341232
476.5407	0.2091902
476.8785	-0.7685478
477.2163	0.1190318
477.5541	0.653994
477.8919	1.60805
478.2296	3.121884
478.5674	3.212456
478.9052	0.8245479
479.2429	-0.1096803
479.5806	0.8357242
479.9183	1.958724
480.256	2.98533
480.5938	3.260772
480.9314	3.27709
481.2691	1.806891
481.6068	1.433016
481.9445	0.975556
482.2821	1.423748
482.6198	0.3345019
482.9574	-0.03978179
483.295	0.2658429
483.6326	-0.04665467
483.9702	0.2146059
484.3078	1.059352
484.6454	2.418271
484.9829	1.9013
485.3205	1.586466
485.6581	1.944078
485.9956	2.618927
486.3332	2.599679
486.6707	2.00878
487.0082	2.430111
487.3457	2.477887
487.6832	2.608502
488.0207	0.600507
488.3582	0.5674548
488.6956	2.501208
489.0331	4.775367
489.3705	3.639982
489.708	1.711858
490.0454	1.474258
490.3828	1.646837
490.7202	1.287116
491.0576	0.9368382
491.395	0.788795
491.7324	1.090852
492.0698	1.158781
492.4071	1.48004
492.7445	2.555567
493.0818	3.41073
493.4191	2.760026
493.7564	0.1661125
494.0938	0.4416273
494.4311	2.153781
494.7683	3.19353
495.1057	2.801952
495.4429	2.34297
495.7802	1.935977
496.1174	2.02546
496.4547	2.138884
496.7919	1.58877
497.1291	1.156047
497.4663	2.14416
497.8035	2.285996
498.1407	1.971864
498.4779	1.576381
498.8151	2.387819
499.1523	2.255216
499.4894	1.595655
499.8265	0.8105568
500.1637	1.76841
500.5008	1.142427
500.8379	1.1929
501.175	1.627897
501.5121	3.161131
501.8492	2.218242
502.1863	1.455691
502.5233	1.016785
502.8604	1.942108
503.1974	1.76051
503.5345	2.70691
503.8715	1.775431
504.2085	2.028464
504.5455	1.771977
504.8825	4.220344
505.2195	4.374496
505.5565	4.537382
505.8934	2.046714
506.2304	1.036926
506.5673	0.6955595
506.9043	3.202984
507.2412	3.093826
507.5781	3.487511
507.915	0.934925
508.2519	0.6892743
508.5888	0.01031996
508.9257	2.185527
509.2625	1.615281
509.5994	2.514083
509.9362	2.703287
510.2731	4.722
510.6099	3.767495
510.9467	3.151953
511.2835	2.61313
511.6203	3.782578
511.9571	3.270024
512.2939	2.65759
512.6306	0.9388254
512.9674	-0.002531589
513.3041	0.5028257
513.6409	2.419503
513.9776	3.527598
514.3143	3.328471
514.651	2.76
514.9877	1.687182
515.3244	1.810673
515.6611	3.069299
515.9977	4.156525
516.3344	4.755385
516.671	3.113686
517.0076	2.171322
517.3443	1.866663
517.6809	2.822373
518.0175	3.156146
518.3541	2.993
518.6907	3.994647
519.0273	3.946474
519.3638	2.457237
519.7004	0.4422794
520.0369	1.480325
520.3735	2.219379
520.71	2.393922
521.0465	2.822124
521.383	3.88915
521.7195	3.289187
522.056	3.401862
522.3925	4.065578
522.7289	3.860377
523.0654	3.043339
523.4018	1.302889
523.7382	0.8457131
524.0746	1.695798
524.4111	3.292763
524.7474	4.198926
525.0839	3.756843
525.4202	3.301946
525.7566	2.489248
526.093	3.379344
526.4293	4.138876
526.7656	4.672517
527.102	4.571143
527.4383	3.423531
527.7746	3.403493
528.1109	3.582878
528.4472	3.370151
528.7834	2.828577
529.1198	3.325308
529.456	3.600625
529.7922	3.957853
530.1285	4.818373
530.4647	4.774046
530.8009	2.842214
531.1371	2.203086
531.4733	1.094867
531.8095	1.882985
532.1457	2.095476
532.4819	3.152285
532.818	1.78801
533.1542	4.423177
533.4903	4.469678
533.8264	3.861533
534.1625	1.816207
534.4987	3.651168
534.8347	3.914325
535.1708	3.327092
535.5069	2.893873
535.843	2.940519
536.179	4.449333
536.515	5.422957
536.8511	6.258692
537.1871	4.355929
537.5231	4.065777
537.8591	3.83733
538.1951	5.742551
538.5311	6.176443
538.8671	6.521913
539.203	4.652961
539.5389	3.725967
539.8749	3.102085
540.2108	3.306702
540.5468	5.085466
540.8826	5.561541
541.2186	5.224541
541.5544	4.839452
541.8903	4.805934
542.2262	4.712157
542.562	4.844044
542.8979	5.56268
543.2337	4.218722
543.5695	3.895459
543.9053	4.635154
544.2411	4.290529
544.577	3.788595
544.9127	3.916953
545.2485	4.417056
545.5842	4.521153
545.92	5.330343
546.2557	5.205647
546.5915	4.679263
546.9272	4.712245
547.2629	5.329122
547.5986	4.563939
547.9343	5.531201
548.27	7.640515
548.6057	9.17108
548.9413	8.831322
549.2769	8.518441
549.6125	8.593719
549.9482	7.099931
550.2838	6.448995
550.6194	5.658945
550.955	5.509715
551.2906	5.064715
551.6262	5.612155
551.9617	6.109101
552.2973	6.461274
552.6328	6.119835
552.9683	5.863152
553.3039	5.786108
553.6394	6.486942
553.9749	7.206292
554.3104	6.620462
554.6459	5.745149
554.9813	7.346794
555.3168	9.006991
555.6522	9.937428
555.9877	10.01342
556.3231	9.044804
556.6585	7.553022
556.9939	8.436859
557.3293	9.666246
557.6647	9.494617
558.0001	8.773379
558.3354	8.190434
558.6708	8.540261
559.0061	8.269085
559.3414	8.25703
559.6768	8.490814
560.012	9.727666
560.3474	9.701882
560.6826	9.345799
561.0179	8.920897
561.3531	10.16473
561.6884	10.34127
562.0237	9.529099
562.3589	8.208786
562.6942	8.874488
563.0294	10.76847
563.3646	12.58403
563.6997	13.15132
564.0349	12.43255
564.3701	12.63268
564.7053	14.37891
565.0404	15.06859
565.3755	15.80093
565.7106	15.9058
566.0458	15.97619
566.3809	15.80627
566.7159	15.89414
567.051	16.10896
567.3861	16.78401
567.7212	17.22705
568.0562	17.37001
568.3913	17.04047
568.7263	17.98648
569.0613	18.40659
569.3964	20.20748
569.7313	20.87222
570.0663	21.69068
570.4013	22.7877
570.7363	24.16781
571.0712	25.00542
571.4062	26.20875
571.7411	27.25164
572.076	28.61106
572.4109	28.89484
572.7458	30.08721
573.0807	31.37843
573.4156	32.93425
573.7505	32.94941
574.0853	33.71128
574.4202	36.57594
574.755	38.38686
575.0898	41.47133
575.4246	42.20918
575.7595	44.07133
576.0942	44.7655
576.429	45.07594
576.7638	46.82787
577.0986	49.4556
577.4333	52.99902
577.7681	55.95385
578.1028	60.53767
578.4375	63.11113
578.7722	65.12209
579.1069	69.77911
579.4416	75.30752
579.7762	80.38937
580.1109	80.41615
580.4456	83.71745
580.7802	89.02608
581.1148	96.72893
581.4495	97.25896
581.7841	102.6077
582.1187	106.0775
582.4532	110.3299
582.7878	111.4875
583.1224	119.3448
583.4569	127.0981
583.7915	134.5701
584.126	134.1867
584.4605	136.7934
584.795	146.5254
585.1295	158.8824
585.4641	162.4465
585.7985	167.2484
586.133	173.8307
586.4674	183.7085
586.8019	191.7095
587.1363	200.796
587.4707	208.4832
587.8051	219.5131
588.1395	229.1359
588.4739	242.7126
588.8083	250.594
589.1427	254.6516
589.4771	257.5299
589.8114	272.7527
590.1457	286.5911
590.48	295.4666
590.8143	308.0845
591.1486	321.4163
591.4829	335.363
591.8172	347.1424
592.1515	361.4741
592.4857	365.6875
592.82	371.3161
593.1542	380.5106
593.4885	398.3542
593.8226	418.7996
594.1569	427.8663
594.491	443.3359
594.8252	462.8503
595.1594	497.5881
595.4935	512.3757
595.8277	523.1628
596.1618	529.1121
596.496	546.4271
596.8301	563.54
597.1642	583.8008
597.4982	595.2162
597.8323	613.0823
598.1664	629.5639
598.5005	648.5841
598.8345	649.5823
599.1685	659.8782
599.5026	677.4504
599.8365	697.4761
600.1706	722.5055
600.5046	737.902
600.8386	755.9534
601.1725	769.0961
601.5065	800.9796
601.8404	828.5721
602.1744	834.8066
602.5083	825.7776
602.8422	838.5763
603.1761	860.3409
603.51	884.6723
603.8439	923.5424
604.1777	963.2049
604.5116	954.9875
604.8455	928.5152
605.1793	964.0521
605.5131	1016.977
605.8469	1060.183
606.1807	1065.553
606.5145	1081.609
606.8483	1082.298
607.182	1106.554
607.5158	1148.406
607.8495	1171.455
608.1833	1181.061
608.517	1187.703
608.8507	1200.688
609.1844	1205.937
609.5181	1249.586
609.8517	1296.998
610.1854	1316.177
610.5191	1292.964
610.8527	1303.592
611.1863	1343.092
611.52	1398.015
611.8536	1405.814
612.1872	1390.396
612.5208	1385.046
612.8544	1401.258
613.1879	1436.465
613.5215	1434.472
613.855	1441.6
614.1885	1466.185
614.522	1502.59
614.8555	1524.516
615.189	1555.443
615.5225	1564.994
615.856	1543.483
616.1895	1528.827
616.5229	1520.942
616.8564	1506.732
617.1898	1520.647
617.5232	1560.432
617.8566	1579.985
618.19	1590.368
618.5234	1573.627
618.8568	1548.265
619.1901	1545.794
619.5234	1564.936
619.8568	1568.643
620.1901	1558.893
620.5234	1558.578
620.8568	1568.354
621.19	1579.649
621.5233	1551.234
621.8566	1514.38
622.1898	1505.836
622.5231	1493.851
622.8563	1502.687
623.1895	1524.853
623.5228	1529.762
623.856	1506.276
624.1891	1535.521
624.5223	1585.983
624.8555	1559.739
625.1887	1481.977
625.5218	1443.512
625.8549	1453.688
626.188	1458.125
626.5211	1399.676
626.8542	1381.057
627.1873	1397.349
627.5204	1431.568
627.8535	1428.115
628.1865	1453.427
628.5195	1462.67
628.8525	1424.194
629.1856	1398.848
629.5186	1394.644
629.8516	1412.396
630.1846	1401.585
630.5175	1416.987
630.8505	1367.014
631.1834	1308.727
631.5164	1260.383
631.8493	1268.923
632.1822	1288.714
632.5151	1294.236
632.848	1256.601
633.1809	1229.949
633.5137	1204.652
633.8466	1193.363
634.1794	1160.381
634.5123	1157.759
634.8451	1119.938
635.1779	1063.329
635.5107	994.5869
635.8435	968.6743
636.1763	960.0829
636.509	962.1443
636.8418	920.1339
637.1745	880.3335
637.5073	844.3116
637.84	810.9511
638.1727	762.0817
638.5054	737.661
638.838	739.2789
639.1707	737.0352
639.5034	727.4244
639.836	706.4412
640.1686	666.1687
640.5013	618.2068
640.8339	606.3802
641.1664	606.2995
641.499	596.8303
641.8316	563.4235
642.1642	556.1524
642.4968	537.5118
642.8293	510.4884
643.1618	487.6863
643.4943	471.9404
643.8268	460.4529
644.1593	436.189
644.4918	420.7959
644.8243	395.2267
645.1567	377.7464
645.4892	358.8869
645.8216	351.6345
646.1541	346.09
646.4865	332.4008
646.8188	306.2997
647.1512	283.8855
647.4836	273.6666
647.816	271.1385
648.1483	265.7355
648.4807	250.0465
648.813	236.3644
649.1453	230.9409
649.4776	221.1908
649.8099	207.576
650.1422	196.7393
650.4745	188.9791
650.8068	181.0862
651.139	174.0715
651.4712	166.8883
651.8035	156.7176
652.1357	146.5558
652.4678	136.9238
652.8	129.4496
653.1322	124.1221
653.4644	118.1506
653.7965	109.8423
654.1287	103.668
654.4608	96.41492
654.7929	91.40964
655.125	82.86516
655.4571	74.30971
655.7892	67.55497
656.1213	65.97492
656.4533	64.75201
656.7854	60.02431
657.1174	53.86826
657.4494	47.99345
657.7814	44.13757
658.1135	40.67019
658.4454	37.59041
658.7774	33.8518
659.1094	30.27578
659.4413	28.36324
659.7733	28.66247
660.1052	28.06651
660.4371	25.62505
660.769	23.38581
661.1009	20.97777
661.4327	19.77904
661.7646	19.54118
662.0965	18.87775
662.4283	16.82279
662.7602	15.29144
663.092	16.61449
663.4238	15.07913
663.7556	14.0713
664.0874	12.37908
664.4191	12.91873
664.7509	10.27185
665.0826	8.707768
665.4144	8.760823
665.7461	8.475958
666.0778	8.20213
666.4095	8.232787
666.7412	8.363233
667.0729	7.338356
667.4045	5.978765
667.7362	6.682973
668.0679	7.58808
668.3995	8.400887
668.7311	7.204814
669.0627	5.895448
669.3943	4.63773
669.7259	4.196078
670.0574	5.409265
670.389	5.313109
670.7205	4.831047
671.0521	4.345738
671.3836	4.003951
671.7151	3.293746
672.0466	3.791051
672.3781	4.901809
672.7095	5.114438
673.041	4.877777
673.3724	4.064312
673.7039	3.924205
674.0353	3.558792
674.3667	3.029735
674.6981	4.262949
675.0295	5.171198
675.3609	4.844571
675.6923	3.719781
676.0236	3.604699
676.3549	2.661326
676.6863	0.6358518
677.0176	0.3821426
677.3489	1.882411
677.6802	4.547057
678.0115	5.416124
678.3427	4.135479
678.674	1.971937
679.0052	1.115069
679.3364	1.69687
679.6677	2.071717
679.9988	2.940695
680.3301	3.243721
680.6613	3.115117
680.9924	2.281789
681.3235	1.266514
681.6547	-0.5475742
681.9858	0.03526039
682.317	1.07096
682.6481	1.976808
682.9791	2.291811
683.3102	3.323447
683.6413	2.784842
683.9724	2.420921
684.3034	1.984496
684.6345	1.218171
684.9655	1.267625
685.2965	1.37569
685.6275	1.966308
685.9584	2.183016
686.2894	2.625085
686.6204	2.859356
686.9514	2.935277
687.2823	2.11893
687.6132	0.4468231
687.9441	0.1045593
688.275	0.8580776
688.6059	0.8482004
688.9368	0.8956072
689.2676	2.663251
689.5985	1.91379
689.9293	0.7684529
690.2601	-0.6407511
690.5909	1.031
690.9218	-0.01435579
691.2526	0.4568753
691.5833	0.5776595
691.9141	1.331136
692.2449	0.2368073
692.5756	0.5439517
692.9063	2.015894
693.2371	3.313184
693.5677	2.884325
693.8984	2.149947
694.2291	1.428035
694.5598	1.525445
694.8904	1.554626
695.2211	2.486703
695.5517	2.519547
695.8823	1.85547
696.2129	0.9889566
696.5435	0.5816678
696.8741	0.8305377
697.2047	0.8176593
697.5352	2.015149
697.8658	1.738011
698.1963	1.78501
698.5268	2.164721
698.8573	3.302963
699.1878	1.150309
699.5182	0.7605982
699.8488	1.627501
700.1792	3.078683
700.5096	-0.218665
700.8401	-0.227333
701.1705	0.9021069
701.5009	1.173404
701.8313	-0.08505502
702.1617	-0.9351822
702.4921	0.1553902
702.8224	1.098315
703.1527	2.998309
703.4831	2.169991
703.8134	1.804334
704.1437	1.37292
704.474	1.65482
704.8043	1.695539
705.1345	1.179867
705.4648	1.465202
705.795	1.313264
706.1252	1.187104
706.4555	0.9233375
706.7857	1.3266
707.1159	1.909894
707.446	3.236449
707.7762	3.157498
708.1064	0.0147721
708.4365	-2.013191
708.7667	-1.134071
709.0968	-0.4464413
709.4269	0.3568376
709.757	0.9200022
710.087	1.282056
710.4171	0.9916793
710.7472	1.377674
711.0772	1.450787
711.4073	1.542205
711.7373	0.6491092
712.0673	-0.6696351
712.3973	-0.6577018
712.7272	0.8002852
713.0573	0.8598763
713.3872	0.07869655
713.7171	0.2996898
714.0471	1.279088
714.377	2.563015
714.7068	2.474689
715.0367	1.053185
715.3666	0.1468252
715.6965	0.8877825
716.0264	1.609145
716.3562	0.5312825
716.686	-0.6273528
717.0159	-0.1873219
717.3456	0.3584952
717.6754	0.7411017
718.0052	0.2573358
718.335	1.551405
718.6647	2.19061
718.9945	0.6634198
719.3242	-0.8550743
719.6539	-0.3521435
719.9836	0.785709
720.3133	0.1563281
720.643	0.1485706
720.9727	0.7965419
721.3023	0.6243768
721.632	-1.191375
721.9615	-1.096606
722.2912	0.6796138
722.6208	1.151806
722.9504	1.450924
723.28	1.41522
723.6095	1.738584
723.9391	0.6154516
724.2686	0.7614071
724.5981	-0.007058098
724.9276	-0.1722464
725.2571	0.2473209
725.5866	0.7855687
725.9161	0.7162134
726.2455	1.086243
726.575	1.583335
726.9044	2.342319
727.2339	2.371475
727.5633	2.691182
727.8927	2.757133
728.222	1.479375
728.5515	1.197982
728.8808	0.4647286
729.2101	-0.5216705
729.5395	-0.4994485
729.8688	1.268978
730.1981	1.766262
730.5274	0.343976
730.8567	0.1718377
731.1859	1.018928
731.5152	2.342077
731.8444	2.815837
732.1736	2.01784
732.5029	1.197871
732.8321	0.7918406
733.1613	1.038251
733.4905	2.445713
733.8196	1.939295
734.1488	1.417996
734.4779	0.06680307
734.8071	0.4590079
735.1362	0.1151929
735.4653	1.423389
735.7944	2.135913
736.1234	1.642801
736.4525	0.9508715
736.7816	0.2389217
737.1106	1.037358
737.4396	2.329771
737.7686	1.441085
738.0976	0.1185914
738.4266	-0.3733556
738.7556	1.050692
739.0845	0.5655844
739.4135	0.5378389
739.7424	0.8314944
740.0714	1.686128
740.4003	0.574141
740.7291	0.4054929
741.058	1.157901
741.3869	2.619021
741.7158	0.7181257
742.0446	0.6183028
742.3734	0.2110065
742.7022	1.526332
743.0311	1.137301
743.3599	1.032106
743.6886	0.1779443
744.0174	-0.08065118
744.3461	0.7849854
744.6749	1.423958
745.0036	1.471661
745.3323	1.349177
745.661	0.2344504
745.9897	-0.009838509
746.3184	-0.6608507
746.647	0.7202004
746.9757	1.65932
747.3043	2.092919
747.6329	0.1582167
747.9615	-0.6051741
748.2902	0.4690507
748.6187	0.7933369
748.9473	0.3401535
749.2759	-0.1236724
749.6044	0.1071395
749.9329	-0.1637712
750.2615	0.04487252
750.59	0.4045551
750.9185	-0.2304999
751.2469	-0.3399486
751.5754	-0.3905411
751.9039	-0.2009336
752.2323	-1.426218
752.5607	-1.090875
752.8891	0.09659559
753.2175	1.411463
753.5459	1.323517
753.8743	1.675174
754.2026	2.55466
754.531	2.861403
754.8593	0.2638249
755.1877	-1.449913
755.516	-1.720364
755.8442	0.2941004
756.1725	0.695053
756.5008	0.86808
756.829	0.02428392
757.1573	0.4731133
757.4855	-0.2564025
757.8138	0.5026445
758.142	-0.2532388
758.4702	0.542988
758.7983	0.08052994
759.1265	0.3635902
759.4547	0.0412102
759.7828	1.164717
760.1109	1.363746
760.439	0.5755105
760.7671	0.77484
761.0952	1.070023
761.4233	1.161969
761.7513	-0.08589742
762.0793	0.06859867
762.4074	0.6285548
762.7354	1.825283
763.0634	1.883571
763.3914	2.306051
763.7194	1.92486
764.0474	1.100345
764.3753	0.1137106
764.7032	-0.3320814
765.0312	0.3885117
765.3591	1.633025
765.687	1.958902
766.0149	1.250005
766.3428	0.04260758
766.6706	-0.4655168
766.9985	-0.303425
767.3263	0.2136724
767.6541	0.6006054
767.9819	-1.050393
768.3097	-2.030776
768.6375	-1.655389
768.9653	0.2378599
769.293	0.5738523
769.6207	0.4668421
769.9485	-0.4451818
770.2762	0.908683
770.6039	1.385691
770.9316	1.214135
771.2593	-0.8614039
771.5869	0.3024817
771.9146	0.3394378
772.2422	0.8486664
772.5698	0.4212555
772.8974	1.076821
773.225	0.09685351
773.5526	0.5816247
773.8801	0.08361638
774.2077	0.9039302
774.5353	-0.1533552
774.8628	0.4063995
775.1903	-0.07223008
775.5178	0.3401583
775.8453	0.1086642
776.1727	-0.5135345
776.5002	-0.2401816
776.8276	0.2235508
777.1551	0.6835389
777.4825	0.1777956
777.8099	1.236492
778.1373	1.504732
778.4647	2.274916
778.7921	0.8862858
779.1194	-0.2014335
779.4467	-0.6952691
779.774	1.266766
780.1014	2.147551
780.4286	0.4341281
780.756	-0.8931257
781.0833	-1.19985
781.4105	0.2283399
781.7377	0.9643658
782.0649	0.1254072
782.3922	0.1287094
782.7194	0.5599756
783.0466	0.8614343
783.3737	0.7196577
783.7009	0.8077202
784.0281	1.126709
784.3552	0.1623887
784.6823	0.7647312
785.0094	-0.1079789
785.3365	0.2823983
785.6636	-0.2310316
785.9907	1.607386
786.3177	1.340208
786.6448	0.8761812
786.9718	0.7530784
787.2988	3.406682
787.6258	2.838588
787.9528	0.2580243
788.2798	-1.155746
788.6068	-0.3720708
788.9337	0.1395155
789.2606	-0.09335225
789.5875	0.3392139
789.9144	0.2684364
790.2413	0.03409354
790.5682	-0.7597184
790.8951	-0.6797674
791.2219	0.3019813
791.5488	1.479133
791.8756	2.704111
792.2024	2.190299
792.5292	1.563925
792.856	-0.1374441
793.1827	0.7182661
793.5095	1.226896
793.8362	1.796427
794.163	-0.0833147
794.4897	-0.22109
794.8164	0.8885415
795.1431	2.375255
795.4698	1.503814
795.7964	-0.1312563
796.123	-0.7794334
796.4497	-0.5694892
796.7763	-0.9096987
797.1029	-0.2854225
797.4295	0.4198528
797.7561	1.496757
798.0826	1.29395
798.4092	1.00477
798.7358	0.3988197
799.0623	0.8507004
799.3888	-0.09359039
799.7153	-0.752713
800.0417	-0.8403395
800.3682	-0.9008756
800.6947	-0.09657148
801.0211	-0.2502276
801.3476	-0.4867035
801.674	-1.240073
802.0004	0.5693095
802.3268	-0.5041244
802.6531	-1.170457
802.9795	-0.8291218
803.3058	0.3513807
803.6322	-0.3647678
803.9585	-0.5189426
804.2848	-0.3957889
804.6111	0.1072277
804.9374	0.301153
805.2636	-0.02967771
805.5899	-0.2302623
805.9161	-0.3774864
806.2423	-0.2926538
806.5685	0.2099153
806.8947	1.564761
807.2209	0.6914582
807.5471	0.1557059
807.8732	-0.869825
808.1994	-0.4868176
808.5255	0.3451877
808.8516	1.297644
809.1777	0.05551586
809.5038	-1.532251
809.8299	-1.426581
810.1559	-0.1223549
810.4819	1.537572
810.808	1.386739
811.134	0.8737612
811.46	1.131307
811.786	1.841515
812.1119	0.5861486
812.4379	-0.7431428
812.7639	-0.7964352
813.0898	0.3329125
813.4157	0.8393736
813.7416	1.898487
814.0675	1.67623
814.3934	0.9063404
814.7192	0.3769923
815.0451	1.81618
815.3709	2.334646
815.6968	2.932078
816.0226	2.46973
816.3483	0.9420943
816.6741	0.6082278
816.9999	0.9580828
817.3256	1.488216
817.6514	0.4998143
817.9771	0.1946933
818.3028	-0.07399705
818.6285	0.1986707
818.9542	0.05467464
819.2798	-0.906424
819.6055	-0.5287964
819.9312	0.4656365
820.2568	1.906079
820.5824	1.930985
820.908	2.215371
821.2336	2.58295
821.5591	2.035535
821.8847	1.762705
822.2102	1.035751
822.5358	1.473182
822.8613	0.7855637
823.1868	-0.6451902
823.5123	-0.9939869
823.8377	0.2822659
824.1631	1.198862
824.4886	-0.2670687
824.814	-0.9185667
825.1395	0.710629
825.4648	0.9368309
825.7902	1.979528
826.1156	0.9121626
826.441	1.117304
826.7663	-0.8052032
827.0917	-1.09481
827.417	0.1465804
827.7422	1.175312
828.0676	0.6065034
828.3928	-0.7203286
828.7181	0.3744916
829.0433	1.261818
829.3686	0.220663
829.6938	-1.11811
830.019	-1.933543
830.3442	-1.524903
830.6694	0.2195748
830.9945	1.217802
831.3196	0.734279
831.6448	-0.3617137
831.9699	0.448332
832.295	0.8390149
832.6201	0.08238431
832.9452	-0.8639787
833.2703	-0.7903568
833.5953	0.08882506
833.9203	-1.294465
834.2454	-1.192391
834.5704	0.3354201
834.8953	0.4362335
835.2203	-0.5814145
835.5453	-0.4356707
835.8702	0.4267527
836.1952	0.3370339
836.5201	0.5679775
836.845	0.6070822
837.1699	-0.4344966
837.4948	0.9941614
837.8196	2.146538
838.1445	2.58216
838.4693	0.7231387
838.7941	0.3009332
839.119	0.3396222
839.4437	0.974316
839.7685	0.9330748
840.0933	1.068322
840.418	0.2560076
840.7427	-0.8993254
841.0675	-1.06311
841.3922	-0.03814832
841.7169	0.5633057
842.0416	0.6323766
842.3662	0.7842508
842.6909	0.6076586
843.0155	0.3316058
843.3401	1.132308
843.6647	1.043612
843.9893	-0.1518372
844.3139	-0.8478483
844.6385	-0.6115637
844.963	-0.009398641
845.2876	0.8881118
845.6121	1.661149
845.9366	0.8999295
846.2611	0.1713032
846.5856	0.3152341
846.91	1.53897
847.2345	0.4437688
847.5589	-1.283802
847.8834	-0.9045495
848.2078	1.183644
848.5322	0.7501535
848.8565	-0.4058999
849.1809	0.4272789
849.5052	1.302393
849.8296	0.8991314
850.1539	0.6368073
850.4782	1.075856
850.8025	1.872126
851.1268	2.090236
851.451	0.3178515
851.7753	0.467872
852.0995	1.368661
852.4237	1.62071
852.7479	-0.01443646
853.0721	0.7470801
853.3963	1.966709
853.7205	0.9211364
854.0446	-0.09699742
854.3688	0.347954
854.6929	1.320218
855.017	1.113373
855.3411	-0.1668431
855.6652	-0.5836809
855.9892	0.3358581
856.3132	0.408104
856.6373	0.02512362
856.9613	-0.6648335
857.2853	0.7767045
857.6093	1.005307
857.9333	1.797596
858.2573	0.532954
858.5812	-0.1276617
858.9051	-0.2986936
859.229	0.3451135
859.5529	0.4011404
859.8768	-0.2484803
860.2007	-0.5261706
860.5245	-0.8071597
860.8484	1.119673
861.1722	1.767159
861.496	1.824003
861.8198	1.009872
862.1436	1.346959
862.4674	1.728002
862.7911	1.111173
863.1149	1.338326
863.4387	1.414907
863.7623	1.882894
864.0861	0.333021
864.4097	-0.2295431
864.7334	-0.3330565
865.0571	0.5582937
865.3807	0.8462837
865.7043	-0.4598766
866.028	-0.7226436
866.3516	0.1718568
866.6751	0.846085
866.9987	0.2205059
867.3223	-0.06520131
867.6458	1.161065
867.9693	0.2191046
868.2928	0.9421344
868.6163	0.1157535
868.9398	0.4947797
869.2632	0.2852602
869.5867	1.138876
869.9102	0.8961114
870.2336	0.5164691
870.5569	0.1156748
870.8804	-0.2689218
871.2037	0.4902294
871.5271	0.5567282
871.8505	-0.0202878
872.1738	-0.8529745
872.4971	-1.341943
872.8204	-2.711041
873.1437	-1.884965
873.467	-1.21388
873.7902	0.9749051
874.1135	1.404806
874.4367	2.214173
874.7599	1.095451
875.0831	1.031773
875.4063	0.1681928
875.7295	-0.2053681
876.0527	0.4946127
876.3758	0.9151427
876.6989	-0.1899782
877.022	-1.849763
877.3452	-0.8932388
877.6682	1.248116
877.9913	1.682736
878.3143	1.210758
878.6374	1.247705
878.9604	1.601731
879.2834	0.9951717
879.6064	0.4158536
879.9294	0.3616728
880.2524	-0.4656314
880.5753	-1.637332
880.8983	-1.669754
881.2212	-0.651453
881.5441	0.8019561
881.867	1.478315
882.1899	1.831626
882.5127	0.5335649
882.8356	0.1943092
883.1584	-0.3353551
883.4812	0.5956247
883.804	0.2923383
884.1268	0.4206076
884.4496	0.1020379
884.7723	0.1505858
885.0951	0.3340337
885.4178	0.3678729
885.7405	-0.7302566
886.0632	-1.197685
886.3859	-0.1876573
886.7086	0.7934186
887.0313	0.01812282
887.3539	1.005945
887.6765	0.9278666
887.9991	0.6808255
888.3217	-0.08804122
888.6443	0.5057881
888.9669	1.619029
889.2894	1.728275
889.6119	2.31329
889.9345	2.249474
890.257	1.872839
890.5795	0.1108094
890.902	0.8291391
891.2244	1.309976
891.5469	1.419437
891.8693	0.9273819
892.1917	1.017469
892.5141	0.698275
892.8365	0.6941213
893.1589	0.7689065
893.4813	0.5130135
893.8036	0.2433093
894.1259	0.07166135
894.4482	-0.3990783
894.7705	0.3953767
895.0928	0.6888622
895.4151	0.816466
895.7373	0.0168012
896.0596	1.037163
896.3818	1.907726
896.704	2.140886
897.0262	0.5770553
897.3484	-0.751839
897.6705	-0.1672302
897.9927	1.08723
898.3148	0.8217037
898.6369	0.440963
898.959	1.003864
899.2811	1.184936
899.6032	-0.1838899
899.9252	-1.240368
900.2473	0.54888
900.5693	1.654483
900.8914	1.31576
901.2133	0.1487972
901.5353	-0.2189076
901.8573	0.2454528
902.1793	0.2350201
902.5012	0.8597257
902.8231	0.6816908
903.145	0.7579468
903.4669	0.5556628
903.7888	0.3665384
904.1107	0.5768009
904.4325	-0.5468261
904.7543	0.5688892
905.0761	1.362046
905.3979	1.194067
905.7197	-0.4170001
906.0415	-1.164606
906.3633	-0.3371307
906.685	-0.0003087098
907.0067	1.487237
907.3284	0.7032802
907.6501	0.9677885
907.9718	0.6116896
908.2935	0.7753376
908.6151	0.1509489
908.9368	0.2619441
909.2584	1.086934
909.58	0.2066245
909.9016	0.4732618
910.2231	-0.5634798
910.5447	-0.2107892
910.8663	-0.09387268
911.1878	1.254888
911.5093	0.6452204
911.8308	1.253557
912.1523	0.2062071
912.4738	-0.66128
912.7952	-0.04318253
913.1166	1.001847
913.4381	-0.3746487
913.7595	-0.6234091
914.0809	1.283514
914.4023	1.851927
914.7236	0.9267199
915.045	1.801409
915.3663	0.8434709
915.6876	0.09326284
916.0089	-0.144579
916.3302	1.113244
916.6515	-0.3790666
916.9727	-0.4606969
917.294	-0.1293392
917.6152	1.183094
917.9364	0.8686458
918.2576	0.4746558
918.5788	-1.789251
918.9	-1.07866
919.2211	-0.1817754
919.5422	0.6577202
919.8633	-0.3167745
920.1844	-0.7573581
920.5056	-0.3870122
920.8266	0.8918681
921.1477	1.178723
921.4688	1.155503
921.7897	0.3100134
922.1108	0.668483
922.4318	-0.1336619
922.7527	0.548747
923.0737	-0.5749104
923.3947	-0.7595883
923.7156	-1.672606
924.0365	-0.4904145
924.3574	0.8148472
924.6783	1.663105
924.9991	0.7955234
925.32	-0.1575504
925.6409	0.8986792
925.9617	1.564351
926.2825	0.6943238
926.6033	-0.4972745
926.9241	0.4362039
927.2449	1.212761
927.5656	-0.2041563
927.8864	-1.674236
928.2071	-0.7513035
928.5278	0.8875318
928.8484	0.4493178
929.1691	-0.7374318
929.4898	0.3828419
929.8104	0.936028
930.131	-0.03812302
930.4517	-0.5140292
930.7723	0.2964047
931.0928	-0.007097215
931.4134	-0.4831209
931.7339	0.1557766
932.0545	1.825493
932.375	1.306081
932.6956	-0.6033326
933.016	-2.050605
933.3365	-0.8751072
933.6569	0.0698926
933.9774	0.07525603
934.2978	-0.06695388
934.6182	-0.7480283
934.9386	0.007096245
935.259	0.7577047
935.5793	1.463447
935.8997	-0.3217926
936.22	-0.6564589
936.5403	0.1421753
936.8607	-0.2764127
937.181	0.1469686
937.5012	0.4011901
937.8215	0.8134296
938.1417	0.4771057
938.462	1.775835
938.7822	0.7328293
939.1024	-1.12555
939.4225	-1.326537
939.7427	-0.2698195
940.0629	0.8361776
940.383	0.2201569
940.7031	-0.04306364
941.0232	-0.3002607
941.3433	0.05582816
941.6633	-0.7123958
941.9834	-1.109
942.3035	-1.367522
942.6235	-0.03978815
942.9435	0.4581045
943.2635	0.6996393
943.5834	-1.196387
943.9034	-0.226146
944.2233	0.5160207
944.5433	0.7914249
944.8632	-0.3230082
945.1831	0.5582224
945.503	1.504836
945.8228	0.7092264
946.1427	-0.7645995
946.4625	-1.078378
946.7823	-0.2005294
947.1022	1.13698
947.4219	0.2576231
947.7417	-0.6897125
948.0615	-1.021661
948.3812	0.06473286
948.7009	1.033516
949.0206	1.505898
949.3403	-0.2005284
949.66	-1.099134
949.9797	-0.1442422
950.2993	1.983293
950.619	1.330914
950.9386	-0.0209478
951.2582	-0.6187913
951.5778	-0.01268101
951.8973	0.5206052
952.2169	-0.0469186
952.5364	-0.3667927
952.856	-0.7981544
953.1755	0.3089399
953.4949	0.8882395
953.8144	-0.771907
954.1339	-1.415795
954.4533	0.1463897
954.7728	1.255915
955.0922	0.5771278
955.4116	0.009224202
955.731	0.3634331
956.0503	0.7500121
956.3696	0.9711686
956.689	0.1121179
957.0083	-0.6623277
957.3276	0.4130222
957.6469	-0.340872
957.9662	-1.638247
958.2854	-2.333921
958.6047	-1.161651
958.9239	0.238213
959.2431	0.8603939
959.5623	-0.1129009
959.8815	-0.7095807
960.2006	-0.8381103
960.5198	0.3940466
960.8389	0.04727503
961.158	0.3542313
961.4771	0.03319304
961.7961	1.185713
962.1152	1.705164
962.4343	1.788322
962.7533	1.193244
963.0723	0.5274981
963.3914	-0.416772
963.7103	-0.426947
964.0293	-0.8355505
964.3483	-0.3008138
964.6672	-0.9074755
964.9861	0.2228272
965.305	-0.4656873
965.6239	-0.08503915
965.9427	-0.2529039
966.2617	1.270419
966.5804	0.7305348
966.8993	0.6230977
967.2181	-0.3508005
967.5369	0.6283724
967.8557	1.039552
968.1744	2.334819
968.4932	1.035295
968.8119	-0.321676
969.1306	-0.850357
969.4493	-0.1674467
969.768	0.4939094
970.0867	0.1433686
970.4053	-0.6400231
970.724	-1.529973
971.0426	-1.048692
971.3612	-0.2768143
971.6797	0.4626828
971.9984	1.283355
972.3169	0.7972318
972.6354	0.2178398
972.954	0.5071116
973.2725	-0.06872938
973.5909	-1.585601
973.9094	-1.036849
974.2279	-0.3901949
974.5463	-0.815278
974.8647	-0.2751534
975.1832	0.9142545
975.5016	1.119352
975.8199	0.03817157
976.1383	-0.436212
976.4567	-0.7401312
976.775	0.4100594
977.0933	1.002028
977.4116	0.6622063
977.7299	0.3012332
978.0482	0.4965174
978.3664	0.8945143
978.6846	1.115369
979.0029	0.7612205
979.321	-0.1369844
979.6393	0.5951598
979.9574	1.74456
980.2756	1.693579
980.5937	0.148694
980.9119	-0.9256077
981.2299	-0.473698
981.548	0.2992867
981.8661	0.8742294
982.1841	0.3394147
982.5022	0.8827136
982.8203	1.212585
983.1382	1.920108
983.4562	1.020467
983.7742	0.1069504
984.0922	-0.07286848
984.4101	0.01696884
984.728	-0.4642732
985.046	-1.47142
985.3638	-0.6461725
985.6818	-0.8851948
985.9996	-0.9769385
986.3174	-1.417198
986.6353	-0.137674
986.9531	1.023312
987.2709	1.567411
987.5887	0.9724428
987.9064	0.3012473
988.2242	0.9051147
988.5419	1.313066
988.8597	-0.09606527
989.1774	-1.32823
989.4951	-1.236983
989.8127	0.3227775
990.1304	0.8299581
990.448	0.7518679
990.7656	-0.4335432
991.0833	0.3919748
991.4008	0.2276018
991.7184	0.1201643
992.0359	-0.5271469
992.3535	-1.129804
992.671	-1.044573
992.9885	0.9289277
993.306	0.743942
993.6235	-0.6203302
993.9409	-0.6736283
994.2584	0.5294038
994.5758	-0.4296354
994.8932	-0.9166778
995.2106	-0.02865443
995.528	0.8723733
995.8453	0.9351587
996.1627	-0.1461245
996.48	0.2824148
996.7974	0.8314148
997.1146	0.7827483
997.4319	0.2404102
997.7491	-0.3699899
998.0664	-0.4388613
998.3837	-1.036469
998.7009	-0.3017988
999.0181	-0.08001135
999.3353	1.311379
999.6524	0.9943756
999.9695	1.543695
1000.287	1.535026
1000.604	1.081608
1000.921	-0.369489
1001.238	-1.264978
1001.555	-0.892218
1001.872	0.01418193
1002.189	0.3589457
1002.506	0.4875975
1002.823	0.8563466
1003.14	0.3779475
1003.457	-0.6915565
1003.774	0.09708949
1004.091	1.558385
1004.408	0.546586
1004.725	-1.130607
1005.042	0.3546418
1005.359	1.474244
1005.675	1.423379
1005.992	1.024872
1006.309	1.748411
1006.626	-0.09737907
1006.943	-1.03238
1007.259	-1.645295
1007.576	-0.3149132
1007.893	-0.671347
1008.21	0.2426707
1008.526	-1.169395
1008.843	-0.4797609
1009.16	-0.2789497
1009.476	1.142233
1009.793	-0.237427
1010.11	-0.7932717
1010.426	-1.408445
1010.743	-0.1696548
1011.059	-1.050797
1011.376	1.024297
1011.693	1.962951
1012.009	1.925124
1012.326	-0.5335644
1012.642	-1.191146
1012.959	-2.082787
1013.275	-2.444095
1013.591	-1.54567
1013.908	0.5851578
1014.224	1.073296
1014.541	-0.2350414
1014.857	-1.31432
1015.173	0.1682906
1015.49	0.8400543
1015.806	1.008206
1016.122	0.6697251
1016.439	1.430103
1016.755	0.05316781
1017.071	-0.4430565
1017.387	-1.366089
1017.704	0.5139413
1018.02	1.414165
1018.336	1.553223
1018.652	0.2627731
1018.968	0.540767
1019.285	0.8976592
1019.601	-0.9857106
1019.917	-2.625144
1020.233	-0.7742708
1020.549	0.4947605
1020.865	1.497485
1021.181	1.163288
1021.497	2.281523
1021.813	1.860971
1022.129	2.51826
1022.445	0.2053263
1022.761	-0.7776308
1023.077	-0.9106049
1023.393	0.2891779
1023.709	0.4634365
1024.025	1.321607
1024.341	0.2537692
1024.656	-0.5194014
1024.972	0.2305044
1025.288	1.313264
1025.604	0.6282154
1025.92	0.3641082
1026.235	0.3320118
1026.551	0.9161832
1026.867	-0.3920194
1027.183	0.2604905
1027.498	0.8152708
1027.814	1.811718
1028.13	0.1985163
1028.445	-0.2236622
1028.761	0.09310719
1029.077	0.5207245
1029.392	-0.1467052
1029.708	0.5312422
1030.024	0.5423189
1030.339	-0.3740982
1030.655	-0.7630017
1030.97	0.3791838
1031.286	1.262928
1031.601	1.373205
1031.917	1.160663
1032.232	0.3756477
1032.547	-0.3005393
1032.863	-0.4184374
1033.178	-1.561414
1033.494	-1.576655
1033.809	-1.734581
1034.125	-1.358139
1034.44	-1.808231
1034.755	-0.7103316
1035.07	0.6030476
1035.386	0.3840683
1035.701	-0.8582851
1036.016	-1.323323
1036.332	-0.7310892
1036.647	-0.6647266
1036.962	-0.7434018
1037.277	0.4196165
1037.592	0.5699189
1037.907	0.544476
1038.223	-0.7886729
1038.538	-0.1087867
1038.853	-0.1977029
1039.168	0.9674935
1039.483	0.2537229
1039.798	-0.1147822
1040.113	-0.4868879
1040.428	0.310746
1040.743	-0.106762
1041.058	0.4438097
1041.373	1.550759
1041.688	2.923579
1042.003	2.192346
1042.318	0.4681564
1042.633	-1.462917
1042.948	-1.159112
1043.263	-0.6563939
1043.577	0.4621827
1043.892	1.063299
1044.207	1.921453
1044.522	1.713034
1044.837	1.131622
1045.151	-0.6425166
1045.466	-2.298184
1045.781	-0.568625
1046.096	1.236504
1046.41	0.920626
1046.725	-0.0499699
1047.04	0.5797315
1047.354	-0.522032
1047.669	-0.4526775
1047.984	1.438338
1048.298	1.944384
1048.613	0.723967
1048.927	-0.8514574
1049.242	-0.6089303
1049.556	-1.325678
1049.871	-0.4314202
1050.185	-0.8709782
1050.5	-0.5174561
1050.814	-1.479144
1051.129	0.07100024
1051.443	1.423863
1051.758	0.9768754
1052.072	-1.667562
1052.386	-2.397305
1052.701	-1.035894
1053.015	0.5280535
1053.329	0.9368815
1053.644	-0.06679584
1053.958	-0.1702235
1054.272	-0.8311602
1054.587	-0.5098998
1054.901	-1.064101
1055.215	-0.5283567
1055.529	-0.7973043
1055.843	-0.235999
1056.158	0.03171023
1056.472	-1.25336
1056.786	-1.46169
1057.1	-1.525532
1057.414	1.404245
1057.728	2.367202
1058.042	2.570352
1058.356	0.6707341
1058.67	-1.14033
1058.984	-0.7864342
1059.298	0.2774881
1059.612	-0.02117339
1059.926	-1.600891
1060.24	-1.662829
1060.554	-0.4705227
1060.868	0.401612
1061.182	1.013744
1061.496	0.6963553
1061.81	-0.7802285
1062.124	-0.3661306
1062.437	-0.2494169
1062.751	0.5467415
1063.065	-0.7030733
1063.379	-1.708438
1063.693	-1.285308
1064.006	0.1677324
1064.32	1.636723
1064.634	0.355588
1064.947	0.8750497
1065.261	1.01955
1065.575	2.056564
1065.888	0.4139925
1066.202	0.8655219
1066.516	0.9739697
1066.829	1.938702
1067.143	1.811748
1067.456	1.068726
1067.77	-0.9438304
1068.083	-0.4120956
1068.397	0.9318245
1068.71	1.190039
1069.024	-0.5886675
1069.337	-0.7930296
1069.651	-0.978855
1069.964	-0.5581776
1070.277	-0.9864922
1070.591	-1.037462
1070.904	-0.5792382
1071.218	0.5355272
1071.531	0.5775216
1071.844	1.528583
1072.157	1.660435
1072.471	1.887749
1072.784	0.6283917
1073.097	0.3111196
1073.411	-0.4333263
1073.724	-0.8706726
1074.037	-0.6025836
1074.35	-1.065946
1074.663	-0.6970894
1074.976	-0.02577578
1075.29	0.4538241
1075.603	-1.110616
1075.916	-0.8140907
1076.229	0.01326343
1076.542	0.05559406
1076.855	-0.8489277
1077.168	0.09133215
1077.481	1.143712
1077.794	0.5567316
1078.107	-0.7150335
1078.42	-0.7910702
1078.733	-0.5699154
1079.046	0.06023211
1079.359	0.03916888
1079.671	0.5891584
1079.984	0.5950708
1080.297	0.5744016
1080.61	0.3233024
1080.923	-0.8186146
1081.235	-0.2895476
1081.548	0.4311598
1081.861	1.624828
1082.174	-0.6741872
1082.486	-0.9022434
1082.799	0.393163
1083.112	2.844502
1083.425	1.93433
1083.737	0.3249923
1084.05	-0.2713839
1084.362	0.8265595
1084.675	0.6000929
1084.988	-0.5529925
1085.3	-0.1868585
1085.613	0.5190734
1085.925	-0.5431842
1086.238	-2.150184
1086.55	-1.044391
1086.863	0.3340364
1087.175	1.479139
1087.488	0.1996476
1087.8	-1.318247
1088.112	-1.202941
1088.425	-0.4929867
1088.737	-0.004820522
1089.05	-0.8962227
1089.362	-0.5003746
1089.674	-0.06649757
1089.986	0.4504259
1090.299	0.2967052
1090.611	-0.8738641
1090.923	0.1643552
1091.235	-0.004990236
1091.548	0.0671005
1091.86	0.2362247
1092.172	0.6381868
1092.484	0.6837021
1092.796	0.3658134
1093.109	0.8970411
1093.421	0.5007058
1093.733	0.8911377
1094.045	0.1502532
1094.357	0.3265634
1094.669	0.02878799
1094.981	1.03892
1095.293	0.368077
1095.605	0.6764919
1095.917	-0.05787968
1096.229	0.641844
1096.541	0.02501909
1096.853	-0.4614582
1097.165	-0.4696655
1097.476	-0.4132567
1097.788	-1.118856
1098.1	-1.678188
1098.412	-0.3457808
1098.724	-0.02199708
1099.036	-0.1506664
1099.347	-0.5976776
1099.659	1.095985
1099.971	1.790192
1100.282	1.201451
1100.594	0.02069523
1100.906	-0.3145598
1101.218	0.4395853
1101.529	0.3297421
1101.841	0.7084194
1102.152	-0.1281099
1102.464	-0.03747012
1102.776	0.5757741
1103.087	0.2842475
1103.399	-0.1128186
1103.71	0.08326044
1104.022	1.297057
1104.333	0.509585
1104.645	-0.9285718
1104.956	-1.827371
1105.268	-2.781005
1105.579	-1.511284
1105.89	0.3721851
1106.202	1.976086
1106.513	1.017793
1106.824	0.9857592
1107.136	1.165114
1107.447	0.9709513
1107.758	0.4282373
1108.07	-0.6251348
1108.381	-0.961014
1108.692	-0.4356901
1109.003	0.3655741
1109.315	0.2115462
1109.626	0.3086358
1109.937	1.230622
1110.248	1.264414
1110.559	-1.124564
1110.87	-1.630996
1111.181	-0.9169849
1111.492	0.9759334
1111.804	-0.3964152
1112.115	0.1395254
1112.426	0.1101952
1112.737	1.209955
1113.048	0.8298972
1113.359	0.7631516
1113.67	0.007867083
1113.98	0.6669257
1114.291	1.271851
1114.602	1.409524
1114.913	-0.1920256
1115.224	-0.7615459
1115.535	-0.7115767
1115.846	-0.01375967
