2021-07-05 SQIB in PMMA 40mgmL medium spin speed dried at 60C
Wavelength (nm)	No1 10pct	No2 4pct	No3 2pct	No4 1pct	No5 0.5pct
191.457733	0.009483	0.010943	0.011340	0.010959	0.011412	
193.053986	0.006818	0.006184	0.006300	0.007065	0.007362	
194.650345	0.004326	0.004641	0.004075	0.004509	0.005101	
196.246765	0.003674	0.003712	0.003561	0.003484	0.004022	
197.843262	0.002797	0.003228	0.003108	0.002909	0.003095	
199.439835	0.002580	0.002829	0.002728	0.002823	0.002833	
201.036469	0.002146	0.002399	0.002438	0.002283	0.002453	
202.633194	0.002145	0.002141	0.002054	0.002177	0.002439	
204.229980	0.001946	0.002089	0.002097	0.002022	0.002168	
205.826859	0.002103	0.001905	0.002025	0.002064	0.002001	
207.423782	0.001733	0.001777	0.001828	0.001739	0.001963	
209.020782	0.001854	0.001894	0.001877	0.001872	0.001936	
210.617874	0.001826	0.001879	0.001985	0.001924	0.001965	
212.215012	0.001988	0.001792	0.001725	0.001825	0.001943	
213.812225	0.001589	0.001855	0.001882	0.001789	0.001989	
215.409500	0.001613	0.001821	0.002005	0.001731	0.001858	
217.006866	0.001835	0.001783	0.001960	0.001843	0.001967	
218.604279	0.001831	0.001964	0.001856	0.001845	0.001959	
220.201752	0.001443	0.001842	0.001725	0.001771	0.001802	
221.799316	0.001621	0.001857	0.001738	0.001603	0.001786	
223.396927	0.001614	0.001660	0.001581	0.001773	0.001655	
224.994598	0.001490	0.001645	0.001692	0.001686	0.001679	
226.592361	0.001530	0.001571	0.001539	0.001540	0.001622	
228.190155	0.001431	0.001520	0.001462	0.001521	0.001547	
229.788040	0.001455	0.001426	0.001436	0.001440	0.001471	
231.385986	0.001350	0.001309	0.001362	0.001393	0.001358	
232.983978	0.001295	0.001460	0.001394	0.001370	0.001405	
234.582062	0.001229	0.001399	0.001363	0.001278	0.001378	
236.180176	0.001333	0.001403	0.001299	0.001245	0.001315	
237.778351	0.001222	0.001330	0.001308	0.001420	0.001403	
239.376617	0.001326	0.001355	0.001335	0.001361	0.001353	
240.974899	0.001286	0.001333	0.001280	0.001298	0.001431	
242.573273	0.001256	0.001412	0.001311	0.001362	0.001393	
244.171677	0.001346	0.001353	0.001338	0.001400	0.001372	
245.770172	0.001414	0.001362	0.001505	0.001355	0.001485	
247.368698	0.001546	0.001470	0.001497	0.001528	0.001600	
248.967316	0.001510	0.001611	0.001478	0.001502	0.001764	
250.565964	0.001549	0.001699	0.001742	0.001607	0.001760	
252.164673	0.001688	0.001733	0.001773	0.001694	0.001685	
253.763428	0.001796	0.001756	0.001795	0.001797	0.001824	
255.362228	0.001759	0.001866	0.002042	0.002001	0.001859	
256.961121	0.001933	0.001885	0.002030	0.001987	0.002154	
258.560028	0.002128	0.002052	0.002172	0.001956	0.002155	
260.158997	0.002256	0.002272	0.002254	0.002193	0.002302	
261.758026	0.002166	0.002304	0.002256	0.002400	0.002429	
263.357117	0.002408	0.002604	0.002289	0.002483	0.002552	
264.956238	0.002569	0.002694	0.002639	0.002714	0.002599	
266.555450	0.002634	0.002622	0.002800	0.002558	0.002995	
268.154663	0.002697	0.002651	0.002926	0.002751	0.003106	
269.753967	0.002735	0.002924	0.002963	0.002915	0.002939	
271.353271	0.003028	0.003041	0.003087	0.003368	0.003322	
272.952667	0.003294	0.003194	0.003113	0.003208	0.003268	
274.552094	0.003348	0.003455	0.003431	0.003168	0.003452	
276.151550	0.003542	0.003563	0.003538	0.003566	0.003568	
277.751099	0.003529	0.003656	0.003716	0.003820	0.003738	
279.350647	0.003527	0.003539	0.003468	0.003654	0.004007	
280.950256	0.003746	0.003785	0.003911	0.003730	0.004050	
282.549927	0.003915	0.003941	0.003845	0.003909	0.004090	
284.149628	0.003987	0.003926	0.004005	0.003909	0.004186	
285.749390	0.004128	0.004160	0.004402	0.004220	0.004368	
287.349182	0.004404	0.004442	0.004368	0.004421	0.004449	
288.949005	0.004856	0.004853	0.004814	0.004859	0.005039	
290.548889	0.005223	0.005377	0.005065	0.005146	0.005586	
292.148804	0.007064	0.007071	0.006998	0.006938	0.007405	
293.748749	0.010248	0.010399	0.010122	0.009864	0.010566	
295.348755	0.015022	0.014994	0.014969	0.014415	0.015315	
296.948792	0.021322	0.021243	0.021187	0.020628	0.021725	
298.548889	0.030330	0.030439	0.030051	0.029302	0.031043	
300.148987	0.041193	0.041679	0.040902	0.039840	0.042184	
301.749146	0.055705	0.055804	0.054791	0.053260	0.056444	
303.349335	0.073270	0.073690	0.072522	0.070637	0.074630	
304.949554	0.095514	0.095765	0.094002	0.091857	0.097088	
306.549835	0.120042	0.120727	0.118928	0.115934	0.122323	
308.150146	0.150314	0.150227	0.148307	0.144300	0.152742	
309.750458	0.181675	0.182708	0.179305	0.174593	0.186034	
311.350861	0.215847	0.216837	0.213431	0.209069	0.220735	
312.951233	0.251778	0.252941	0.249065	0.243591	0.257385	
314.551697	0.288114	0.290319	0.286240	0.279872	0.296185	
316.152161	0.325608	0.328247	0.323943	0.316671	0.334877	
317.752686	0.363767	0.366418	0.361008	0.354357	0.374451	
319.353210	0.401109	0.404627	0.399139	0.390930	0.414242	
320.953796	0.437041	0.441326	0.435307	0.426708	0.451918	
322.554382	0.473444	0.479654	0.470960	0.462213	0.489778	
324.155029	0.513218	0.517373	0.512876	0.503470	0.530968	
325.755676	0.539567	0.544038	0.542931	0.532428	0.560111	
327.356384	0.563964	0.569325	0.562861	0.551306	0.584594	
328.957092	0.588969	0.597117	0.587997	0.577034	0.612005	
330.557861	0.614147	0.621376	0.614188	0.603990	0.639116	
332.158630	0.637290	0.645750	0.638187	0.626989	0.664085	
333.759430	0.658565	0.666951	0.660146	0.647858	0.686252	
335.360260	0.676581	0.685983	0.679274	0.666633	0.705759	
336.961121	0.692769	0.703096	0.695844	0.683372	0.722822	
338.562012	0.707927	0.717522	0.710966	0.699668	0.739848	
340.162903	0.720563	0.731855	0.724324	0.711928	0.753207	
341.763855	0.733446	0.743675	0.735654	0.724554	0.766417	
343.364807	0.743633	0.755084	0.747524	0.734857	0.776879	
344.965759	0.754313	0.764667	0.755907	0.743351	0.786752	
346.566772	0.762749	0.772660	0.763950	0.751204	0.794873	
348.167786	0.770705	0.779946	0.770975	0.758415	0.801172	
349.768860	0.776990	0.785954	0.776763	0.764049	0.806607	
351.369904	0.781945	0.790777	0.782666	0.768923	0.811850	
352.971008	0.787399	0.796450	0.785632	0.772398	0.816901	
354.572083	0.790092	0.800419	0.790454	0.777495	0.820414	
356.173218	0.793472	0.803710	0.794056	0.780480	0.825167	
357.774353	0.795772	0.806500	0.797719	0.784714	0.827908	
359.375519	0.797043	0.808493	0.799955	0.786076	0.830631	
360.976685	0.798547	0.810912	0.801906	0.789013	0.834606	
362.577881	0.801403	0.813408	0.804279	0.791206	0.837201	
364.179108	0.804460	0.815816	0.806932	0.794430	0.838844	
365.780334	0.807597	0.818468	0.810238	0.796486	0.840880	
367.381561	0.811904	0.822690	0.812884	0.798769	0.843184	
368.982849	0.815614	0.825227	0.815236	0.801789	0.845377	
370.584106	0.818196	0.828378	0.816137	0.802448	0.846071	
372.185364	0.820394	0.829635	0.817934	0.803159	0.847474	
373.786682	0.822828	0.830460	0.818617	0.804282	0.848322	
375.388000	0.824221	0.830878	0.818778	0.805017	0.847159	
376.989319	0.824499	0.832197	0.818985	0.803530	0.847614	
378.590637	0.823632	0.831800	0.818330	0.803019	0.846852	
380.191986	0.823782	0.830251	0.818337	0.803193	0.845927	
381.793365	0.823487	0.830328	0.817861	0.803333	0.846453	
383.394714	0.823566	0.830285	0.818365	0.804288	0.848077	
384.996094	0.823101	0.831880	0.819054	0.804726	0.849257	
386.597473	0.823121	0.832402	0.820598	0.806067	0.849674	
388.198853	0.823806	0.833357	0.821238	0.806716	0.850948	
389.800232	0.823522	0.833937	0.821814	0.808172	0.851611	
391.401672	0.824332	0.835068	0.823276	0.810114	0.853106	
393.003082	0.824919	0.836352	0.824426	0.810801	0.854738	
394.604492	0.824789	0.835757	0.824966	0.811603	0.855599	
396.205902	0.826458	0.838163	0.826629	0.812200	0.856411	
397.807312	0.827002	0.839231	0.826667	0.813051	0.857324	
399.408752	0.827971	0.839720	0.827850	0.813797	0.858007	
401.010193	0.829318	0.840751	0.828833	0.814297	0.858043	
402.611633	0.831338	0.842087	0.829238	0.815498	0.858319	
404.213074	0.832287	0.842444	0.829931	0.815000	0.859679	
405.814514	0.833359	0.843829	0.830766	0.816035	0.860300	
407.415955	0.833786	0.843905	0.831479	0.816794	0.859522	
409.017395	0.834890	0.844986	0.832140	0.817185	0.859604	
410.618835	0.835099	0.845134	0.832130	0.817398	0.859739	
412.220276	0.836327	0.845068	0.832364	0.817350	0.859669	
413.821716	0.836019	0.845370	0.832269	0.817405	0.859766	
415.423157	0.836758	0.845939	0.831931	0.817733	0.859356	
417.024597	0.835868	0.845920	0.832226	0.817392	0.860010	
418.626038	0.837065	0.845631	0.832217	0.817873	0.859995	
420.227448	0.836880	0.846120	0.832453	0.818077	0.859792	
421.828918	0.837049	0.845837	0.832359	0.818309	0.859998	
423.430328	0.837497	0.846685	0.832729	0.818630	0.860106	
425.031738	0.837907	0.846058	0.832853	0.818494	0.860194	
426.633148	0.837923	0.846887	0.833046	0.818812	0.860737	
428.234558	0.838284	0.846990	0.833382	0.819400	0.860856	
429.835938	0.838602	0.847105	0.833667	0.819466	0.860832	
431.437347	0.839106	0.847678	0.833717	0.819531	0.860756	
433.038727	0.839477	0.847593	0.834452	0.820245	0.862006	
434.640076	0.839663	0.847918	0.834124	0.819763	0.861377	
436.241455	0.840263	0.848475	0.834115	0.819991	0.861738	
437.842834	0.840150	0.848161	0.834018	0.820078	0.861388	
439.444183	0.840691	0.848212	0.834539	0.820495	0.861907	
441.045502	0.841376	0.848509	0.834717	0.821018	0.861535	
442.646820	0.841406	0.848125	0.835144	0.821165	0.861776	
444.248138	0.841341	0.848016	0.834979	0.821141	0.862169	
445.849457	0.842648	0.848748	0.835697	0.821625	0.862710	
447.450745	0.842320	0.849517	0.836000	0.822079	0.863271	
449.052002	0.843154	0.849135	0.836536	0.822321	0.863678	
450.653259	0.843842	0.849776	0.836513	0.822661	0.863839	
452.254547	0.844000	0.850324	0.836912	0.823115	0.864057	
453.855774	0.844266	0.850410	0.836938	0.823281	0.863826	
455.456970	0.844707	0.850476	0.837137	0.823741	0.864492	
457.058197	0.845336	0.850645	0.837921	0.823959	0.865031	
458.659363	0.845747	0.851399	0.838495	0.824159	0.865798	
460.260559	0.845845	0.851737	0.839326	0.824859	0.866157	
461.861664	0.846402	0.852296	0.839129	0.825436	0.866232	
463.462830	0.846612	0.852549	0.839321	0.824916	0.866207	
465.063904	0.847045	0.852529	0.839004	0.825264	0.866825	
466.665039	0.847042	0.852779	0.839687	0.825352	0.866611	
468.266113	0.847777	0.852942	0.840010	0.825714	0.866947	
469.867126	0.847767	0.853026	0.840216	0.826280	0.867738	
471.468170	0.848033	0.853608	0.841392	0.826159	0.867443	
473.069183	0.848376	0.853876	0.841369	0.826893	0.868094	
474.670166	0.848892	0.854738	0.840783	0.827286	0.868089	
476.271149	0.849410	0.855029	0.841863	0.827110	0.868645	
477.872070	0.849241	0.854694	0.842119	0.827626	0.868737	
479.472992	0.849872	0.855005	0.842655	0.827260	0.868964	
481.073883	0.850507	0.856000	0.842576	0.827903	0.868520	
482.674744	0.850817	0.856619	0.843137	0.828229	0.868902	
484.275574	0.851855	0.856987	0.843356	0.828729	0.869393	
485.876404	0.852505	0.858095	0.843960	0.828679	0.869591	
487.477203	0.853607	0.858458	0.844250	0.829309	0.869692	
489.077942	0.854181	0.858969	0.844520	0.829603	0.869928	
490.678650	0.854563	0.859422	0.845120	0.830029	0.870121	
492.279388	0.854785	0.859590	0.845622	0.830166	0.870324	
493.880035	0.855200	0.860974	0.845834	0.830845	0.870680	
495.480713	0.856283	0.861536	0.846285	0.830885	0.870627	
497.081299	0.856925	0.861729	0.846700	0.831099	0.870851	
498.681885	0.857495	0.862302	0.846490	0.831363	0.870802	
500.282410	0.857530	0.862695	0.847118	0.831734	0.871384	
501.882965	0.858122	0.863224	0.847110	0.831897	0.871997	
503.483459	0.858438	0.863230	0.847692	0.832407	0.871126	
505.083893	0.857893	0.863499	0.847919	0.832674	0.871688	
506.684326	0.857984	0.864033	0.848111	0.832767	0.871736	
508.284729	0.858064	0.864135	0.848569	0.832569	0.871589	
509.885071	0.857686	0.864849	0.848450	0.832951	0.871862	
511.485352	0.857087	0.864376	0.848414	0.833073	0.871957	
513.085632	0.856603	0.864580	0.848575	0.833511	0.871397	
514.685913	0.857042	0.865034	0.849755	0.834734	0.872963	
516.286072	0.856332	0.864858	0.849764	0.833951	0.872066	
517.886292	0.854828	0.865059	0.848373	0.833854	0.871808	
519.486450	0.854922	0.864959	0.848911	0.834360	0.872158	
521.086487	0.854139	0.864849	0.848463	0.834013	0.871922	
522.686584	0.853147	0.864651	0.849036	0.834112	0.872327	
524.286560	0.852398	0.864673	0.848636	0.834396	0.872482	
525.886536	0.850889	0.864421	0.849490	0.834781	0.872711	
527.486450	0.849846	0.863890	0.848997	0.834924	0.872435	
529.086365	0.848328	0.863498	0.848706	0.835131	0.872370	
530.686218	0.846826	0.862630	0.848380	0.834757	0.872145	
532.286011	0.845424	0.862421	0.848009	0.835135	0.871564	
533.885803	0.842915	0.861781	0.848004	0.835062	0.872303	
535.485474	0.840638	0.860705	0.847792	0.834633	0.872439	
537.085144	0.838435	0.859722	0.847170	0.834649	0.872459	
538.684814	0.835838	0.857902	0.846439	0.834449	0.872846	
540.284363	0.832878	0.856641	0.845750	0.833984	0.872477	
541.883911	0.829759	0.854877	0.845300	0.834156	0.872488	
543.483398	0.826088	0.853067	0.844153	0.833248	0.872167	
545.082886	0.822645	0.851537	0.843449	0.833655	0.872355	
546.682251	0.818653	0.850159	0.842031	0.832809	0.871974	
548.281616	0.814729	0.848058	0.841563	0.832989	0.871830	
549.880920	0.810094	0.845677	0.840662	0.832520	0.871634	
551.480164	0.805245	0.843383	0.839289	0.831918	0.871480	
553.079346	0.800746	0.841061	0.838156	0.831126	0.871262	
554.678528	0.795217	0.838319	0.837596	0.830648	0.870924	
556.277649	0.789570	0.835573	0.836237	0.830692	0.870865	
557.876648	0.783761	0.833231	0.835193	0.830107	0.870424	
559.475647	0.778372	0.830437	0.834006	0.829336	0.870356	
561.074585	0.772025	0.827099	0.832892	0.828965	0.870118	
562.673462	0.765526	0.823980	0.831307	0.828550	0.870535	
564.272339	0.758871	0.820935	0.830390	0.828007	0.869772	
565.871094	0.751122	0.817015	0.828452	0.827560	0.869586	
567.469849	0.743579	0.812880	0.826417	0.826457	0.869264	
569.068481	0.734377	0.808304	0.824589	0.825307	0.868868	
570.667114	0.725514	0.803657	0.822646	0.823841	0.868584	
572.265686	0.715032	0.797872	0.820057	0.822687	0.867533	
573.864136	0.704422	0.792065	0.817068	0.821179	0.866993	
575.462646	0.693052	0.785625	0.813485	0.819560	0.866116	
577.060974	0.679381	0.778035	0.810155	0.817665	0.864934	
578.659302	0.665754	0.769997	0.805880	0.815678	0.863607	
580.257629	0.650794	0.760856	0.801475	0.813539	0.862332	
581.855835	0.634213	0.750921	0.796269	0.810527	0.861063	
583.453979	0.617570	0.740896	0.790808	0.807000	0.859453	
585.052063	0.599248	0.729814	0.784979	0.803878	0.857337	
586.650024	0.579996	0.717991	0.778135	0.800059	0.855473	
588.248047	0.559366	0.705318	0.771234	0.796462	0.852778	
589.845947	0.538577	0.691840	0.764054	0.792520	0.851085	
591.443726	0.517239	0.677999	0.756717	0.788944	0.848306	
593.041565	0.495394	0.663638	0.748634	0.783751	0.845946	
594.639282	0.473371	0.648957	0.740775	0.779944	0.843376	
596.236877	0.451465	0.634605	0.733522	0.776463	0.841377	
597.834473	0.430665	0.620577	0.726406	0.772006	0.839495	
599.432007	0.409922	0.606233	0.719223	0.769055	0.837576	
601.029419	0.390078	0.592294	0.712421	0.765656	0.835656	
602.626770	0.371736	0.578874	0.706213	0.762322	0.834054	
604.224060	0.354666	0.565813	0.699876	0.759646	0.832713	
605.821350	0.338905	0.554145	0.694665	0.757084	0.831162	
607.418518	0.324729	0.542863	0.689338	0.754644	0.830153	
609.015564	0.312261	0.532355	0.683755	0.752509	0.828570	
610.612671	0.300743	0.522324	0.678747	0.749651	0.827494	
612.209595	0.290575	0.513540	0.673895	0.746607	0.825974	
613.806519	0.281797	0.504269	0.667927	0.744037	0.824137	
615.403259	0.273446	0.495167	0.661389	0.740412	0.822069	
617.000061	0.265395	0.485137	0.654159	0.735612	0.819068	
618.596741	0.256526	0.473860	0.645210	0.729736	0.815486	
620.193298	0.247003	0.461425	0.634922	0.722929	0.811121	
621.789856	0.236186	0.446298	0.622495	0.715115	0.806253	
623.386292	0.224231	0.428814	0.608010	0.705759	0.800621	
624.982666	0.210996	0.409465	0.591454	0.694481	0.793171	
626.578979	0.196994	0.388358	0.572673	0.681596	0.784851	
628.175171	0.182099	0.365684	0.551800	0.667150	0.775599	
629.771362	0.167365	0.341748	0.528833	0.651495	0.765426	
631.367371	0.152899	0.317509	0.504676	0.633985	0.753959	
632.963379	0.138830	0.293808	0.479783	0.615252	0.741078	
634.559265	0.125833	0.270257	0.453565	0.595114	0.727016	
636.155151	0.113795	0.247737	0.427414	0.574148	0.712194	
637.750854	0.102907	0.226792	0.401567	0.552552	0.696603	
639.346558	0.093520	0.207537	0.376557	0.530910	0.680694	
640.942139	0.085126	0.190387	0.353216	0.509318	0.664358	
642.537659	0.077827	0.175167	0.331435	0.488313	0.648395	
644.133057	0.071826	0.161853	0.311856	0.469332	0.633185	
645.728394	0.066632	0.150669	0.294354	0.451692	0.619413	
647.323669	0.062320	0.141537	0.280231	0.436958	0.606663	
648.918823	0.058934	0.134352	0.268646	0.425061	0.596505	
650.513977	0.056374	0.128874	0.260418	0.415826	0.588719	
652.109009	0.054498	0.125570	0.255334	0.410614	0.584301	
653.703918	0.053422	0.124132	0.253603	0.408988	0.582829	
655.298706	0.053134	0.124957	0.256239	0.412293	0.586344	
656.893433	0.053570	0.127834	0.262512	0.419688	0.592796	
658.488159	0.054598	0.131611	0.270277	0.428107	0.600224	
660.082703	0.056495	0.137359	0.280552	0.439472	0.610086	
661.677185	0.060005	0.146867	0.297075	0.457730	0.624550	
663.271606	0.064748	0.160065	0.318833	0.480883	0.643138	
664.865906	0.070450	0.176005	0.344294	0.505884	0.663042	
666.460144	0.077741	0.194738	0.372560	0.533104	0.683608	
668.054321	0.086622	0.216976	0.404331	0.561564	0.704514	
669.648315	0.097579	0.242608	0.438480	0.590769	0.725218	
671.242310	0.110763	0.272117	0.474397	0.619894	0.745007	
672.836121	0.126545	0.304704	0.511459	0.647920	0.764023	
674.429871	0.145208	0.340167	0.548433	0.674298	0.781587	
676.023560	0.166796	0.378158	0.584564	0.698698	0.796859	
677.617126	0.191444	0.418473	0.619034	0.721166	0.809877	
679.210571	0.220165	0.459435	0.651588	0.741455	0.821701	
680.804016	0.251851	0.500980	0.681309	0.758662	0.831784	
682.397339	0.286719	0.541588	0.708086	0.773381	0.839657	
683.990479	0.324056	0.580520	0.730924	0.785899	0.846611	
685.583618	0.363816	0.616948	0.751463	0.796411	0.852238	
687.176636	0.405248	0.650872	0.768971	0.805306	0.856842	
688.769470	0.446748	0.681334	0.783557	0.812439	0.860317	
690.362305	0.488886	0.708838	0.795913	0.817775	0.863139	
691.955017	0.529582	0.732613	0.806086	0.822489	0.865840	
693.547607	0.567541	0.752987	0.814566	0.826274	0.867154	
695.140137	0.603177	0.770796	0.821300	0.829055	0.868763	
696.732544	0.635514	0.785735	0.826450	0.831482	0.869964	
698.324829	0.664666	0.797687	0.831338	0.833025	0.870504	
699.917053	0.690589	0.808104	0.835003	0.834656	0.871144	
701.509155	0.712310	0.816808	0.838694	0.836324	0.871594	
703.101196	0.731115	0.823805	0.840656	0.836434	0.872117	
704.693054	0.747541	0.829524	0.842984	0.837581	0.871975	
706.284851	0.761243	0.834711	0.845018	0.838990	0.872454	
707.876587	0.772697	0.839108	0.846035	0.839334	0.872363	
709.468140	0.782553	0.842850	0.847514	0.839847	0.872697	
711.059631	0.791124	0.845556	0.849077	0.839652	0.872809	
712.651001	0.798348	0.848200	0.849588	0.840754	0.873060	
714.242249	0.804639	0.850670	0.850176	0.840961	0.872935	
715.833374	0.810199	0.852342	0.851427	0.840918	0.872992	
717.424438	0.815173	0.854380	0.852148	0.841472	0.873024	
719.015442	0.819639	0.856135	0.852902	0.841630	0.873095	
720.606262	0.822875	0.858016	0.853302	0.842102	0.873152	
722.196960	0.826992	0.859017	0.853200	0.841858	0.873090	
723.787598	0.829164	0.860093	0.854128	0.841887	0.872307	
725.378052	0.831321	0.860681	0.853700	0.842028	0.872684	
726.968445	0.834060	0.862678	0.854907	0.842103	0.873087	
728.558716	0.837275	0.863367	0.855337	0.842928	0.872820	
730.148926	0.839157	0.864811	0.855554	0.843524	0.873450	
731.738953	0.841162	0.865137	0.855782	0.842869	0.872964	
733.328918	0.842928	0.865658	0.856328	0.842931	0.873069	
734.918762	0.844014	0.866129	0.856365	0.842865	0.872389	
736.508423	0.846044	0.865997	0.856316	0.843297	0.872389	
738.098022	0.847199	0.866833	0.856686	0.843094	0.872467	
739.687561	0.848891	0.867071	0.857010	0.842673	0.871961	
741.276917	0.849769	0.867461	0.856752	0.843188	0.872562	
742.866150	0.850603	0.867962	0.857050	0.843606	0.872110	
744.455322	0.851198	0.868309	0.857294	0.843068	0.872535	
746.044312	0.852557	0.868128	0.857132	0.842969	0.872609	
747.633179	0.853136	0.868307	0.857534	0.843676	0.872657	
749.221985	0.854059	0.868400	0.857228	0.843480	0.872148	
750.810669	0.854188	0.868505	0.856613	0.843285	0.871942	
752.399170	0.855360	0.869271	0.856750	0.843337	0.872253	
753.987610	0.855715	0.869202	0.856903	0.843544	0.872075	
755.575867	0.856051	0.868844	0.856768	0.843426	0.872440	
757.164063	0.855997	0.869139	0.856744	0.842918	0.871427	
758.752136	0.856270	0.868903	0.857301	0.843412	0.871579	
760.340027	0.856688	0.869084	0.856791	0.843424	0.871864	
761.927856	0.857086	0.869045	0.857498	0.843272	0.871888	
763.515503	0.857670	0.868758	0.857400	0.843127	0.872210	
765.103149	0.857910	0.869151	0.857234	0.842806	0.871917	
766.690552	0.857928	0.869077	0.856877	0.842889	0.871662	
768.277832	0.858283	0.868697	0.856923	0.842704	0.871402	
769.865051	0.858660	0.868792	0.857042	0.842904	0.871636	
771.452026	0.858676	0.868766	0.856377	0.842876	0.871462	
773.039001	0.858599	0.868600	0.856458	0.842405	0.871366	
774.625793	0.858686	0.868798	0.856212	0.842297	0.871252	
776.212463	0.858596	0.868353	0.856665	0.842267	0.871246	
777.799011	0.859086	0.869021	0.856302	0.842128	0.871525	
779.385376	0.859242	0.868432	0.856429	0.843003	0.871217	
780.971680	0.859810	0.868708	0.855673	0.842158	0.870694	
782.557861	0.859880	0.868466	0.856753	0.842983	0.871467	
784.143860	0.859874	0.868511	0.856277	0.842910	0.871491	
785.729736	0.859462	0.868373	0.856334	0.843051	0.870930	
787.315491	0.860304	0.868310	0.855959	0.842927	0.870622	
788.901123	0.860020	0.868378	0.856086	0.842721	0.870126	
790.486633	0.860519	0.868267	0.856064	0.843004	0.870112	
792.071960	0.859547	0.867423	0.855844	0.842812	0.870543	
793.657166	0.860269	0.868232	0.855912	0.842215	0.870061	
795.242249	0.860155	0.868034	0.856100	0.843460	0.870065	
796.827209	0.860182	0.868037	0.855639	0.842301	0.870458	
798.411987	0.860512	0.867707	0.855637	0.842817	0.870572	
799.996704	0.860479	0.867461	0.855305	0.842341	0.869853	
801.581177	0.860471	0.867725	0.854935	0.842366	0.870121	
803.165649	0.860656	0.867428	0.855966	0.841921	0.870288	
804.749878	0.860438	0.867905	0.855548	0.842217	0.870454	
806.333984	0.861008	0.867296	0.854827	0.841981	0.869925	
807.917969	0.860598	0.867321	0.855149	0.841695	0.869880	
809.501831	0.861000	0.866941	0.855221	0.841914	0.869830	
811.085510	0.860487	0.866430	0.855092	0.841904	0.869395	
812.669067	0.860990	0.866459	0.854254	0.842071	0.869432	
814.252502	0.861437	0.867037	0.854510	0.841883	0.868830	
815.835754	0.860786	0.866457	0.854763	0.841567	0.868941	
817.418884	0.861196	0.866597	0.853955	0.841026	0.868311	
819.001831	0.860438	0.866172	0.854925	0.841574	0.869154	
820.584656	0.861377	0.866287	0.854825	0.841408	0.869342	
822.167358	0.861199	0.866183	0.853975	0.841453	0.869174	
823.750000	0.861050	0.866200	0.853509	0.841342	0.869219	
825.332336	0.861102	0.865798	0.854365	0.841931	0.869185	
826.914673	0.861127	0.865361	0.853797	0.841775	0.868238	
828.496704	0.861365	0.866989	0.853680	0.841889	0.868682	
830.078735	0.861108	0.866074	0.853269	0.841684	0.868212	
831.660522	0.861685	0.865885	0.853676	0.841096	0.867886	
833.242188	0.861659	0.865582	0.853456	0.841273	0.868384	
834.823730	0.861310	0.865519	0.853862	0.841239	0.868730	
836.405090	0.861562	0.866161	0.853731	0.841443	0.868526	
837.986206	0.861206	0.866030	0.854608	0.841665	0.867585	
839.567261	0.861318	0.865765	0.854731	0.842031	0.867970	
841.148254	0.861764	0.866389	0.854162	0.841517	0.868262	
842.729004	0.861967	0.865271	0.854078	0.841971	0.868581	
844.309570	0.861601	0.864979	0.854447	0.842298	0.868622	
845.890015	0.861459	0.865078	0.853798	0.842088	0.867948	
847.470398	0.861901	0.865790	0.853643	0.841738	0.868150	
849.050476	0.861521	0.865572	0.853312	0.841016	0.867687	
850.630493	0.861643	0.865437	0.853417	0.841696	0.867196	
852.210327	0.861642	0.866055	0.853426	0.841256	0.868077	
853.790039	0.861769	0.866231	0.853633	0.840853	0.867159	
855.369507	0.861984	0.865908	0.853271	0.841643	0.867857	
856.948914	0.862574	0.864940	0.853757	0.841349	0.868133	
858.528137	0.862402	0.865544	0.853476	0.841140	0.868155	
860.107239	0.863041	0.866149	0.854035	0.840668	0.867659	
861.686035	0.862248	0.865205	0.853682	0.841169	0.867367	
863.264832	0.862429	0.865091	0.854361	0.841665	0.867025	
864.843384	0.862436	0.864023	0.853990	0.841814	0.867231	
866.421753	0.862780	0.865307	0.853110	0.841085	0.867552	
868.000000	0.862294	0.865501	0.853891	0.841737	0.866958	
869.578125	0.861882	0.864783	0.853528	0.840592	0.867223	
871.156067	0.862496	0.865350	0.854204	0.840761	0.867384	
872.733765	0.862327	0.864939	0.853130	0.840724	0.867101	
874.311401	0.861910	0.865149	0.853886	0.841987	0.867016	
875.888855	0.862748	0.864772	0.854025	0.841156	0.866995	
877.466125	0.862212	0.865619	0.852735	0.841787	0.866417	
879.043274	0.862200	0.864687	0.853409	0.840982	0.866903	
880.620239	0.861456	0.864404	0.853060	0.841698	0.865812	
882.196960	0.861827	0.864931	0.853334	0.840735	0.866589	
883.773560	0.862541	0.865018	0.853334	0.841097	0.867057	
885.349976	0.862160	0.865194	0.852621	0.840957	0.866618	
886.926270	0.862148	0.865132	0.853137	0.840965	0.866090	
888.502319	0.861918	0.864206	0.853600	0.841041	0.865842	
890.078308	0.862823	0.865239	0.853734	0.840034	0.866499	
891.654114	0.862028	0.864395	0.853153	0.840438	0.865611	
893.229675	0.862745	0.865324	0.853372	0.841009	0.865574	
894.805054	0.862177	0.865507	0.853625	0.841188	0.866567	
896.380371	0.861975	0.864966	0.853760	0.841382	0.865975	
897.955444	0.862943	0.864184	0.853749	0.839923	0.866299	
899.530396	0.863080	0.864175	0.853624	0.840301	0.866992	
901.105103	0.863224	0.864695	0.853558	0.840835	0.865939	
902.679565	0.862474	0.865229	0.854321	0.840949	0.867033	
904.254028	0.862477	0.864185	0.852638	0.840930	0.865617	
905.828247	0.863292	0.864036	0.853234	0.841054	0.865374	
907.402222	0.862443	0.864879	0.852283	0.841158	0.866457	
908.976196	0.863137	0.864866	0.853116	0.839983	0.865544	
910.549805	0.862563	0.864395	0.853359	0.840413	0.866209	
912.123352	0.862960	0.863794	0.852065	0.840789	0.865317	
913.696655	0.862477	0.864139	0.852503	0.840419	0.865394	
915.269836	0.862682	0.864585	0.852716	0.840599	0.865374	
916.842773	0.862410	0.864297	0.853008	0.840706	0.864956	
918.415649	0.862493	0.864070	0.852223	0.840369	0.865047	
919.988159	0.863187	0.865482	0.853188	0.840671	0.865337	
921.560669	0.863209	0.864406	0.851739	0.840830	0.865267	
923.132935	0.862672	0.864274	0.852998	0.839727	0.864703	
924.704956	0.862461	0.863591	0.852129	0.840697	0.865403	
926.276855	0.861662	0.863565	0.853020	0.840482	0.865117	
927.848511	0.862421	0.863824	0.852679	0.841632	0.864194	
929.420105	0.863980	0.864789	0.853210	0.840871	0.864849	
930.991394	0.862907	0.865282	0.853168	0.840341	0.863706	
932.562622	0.861807	0.864487	0.852714	0.840530	0.865573	
934.133606	0.863392	0.863461	0.853132	0.840579	0.864639	
935.704407	0.862969	0.863891	0.852753	0.840002	0.863440	
937.275024	0.862904	0.863496	0.852895	0.840962	0.865054	
938.845398	0.862292	0.863721	0.853368	0.841851	0.864813	
940.415649	0.862587	0.862792	0.853474	0.841028	0.863636	
941.985657	0.863180	0.864781	0.854266	0.841529	0.863383	
943.555481	0.862722	0.863290	0.852700	0.841095	0.864800	
945.125183	0.863053	0.862744	0.854119	0.840960	0.863942	
946.694641	0.863301	0.864072	0.852840	0.841536	0.864268	
948.263977	0.863468	0.863747	0.852585	0.840006	0.864467	
949.833008	0.862594	0.863983	0.853592	0.842208	0.863681	
951.401978	0.863389	0.863740	0.853758	0.840233	0.863978	
952.970581	0.862414	0.862619	0.852822	0.840696	0.862733	
954.539185	0.864614	0.862876	0.854006	0.842635	0.864170	
956.107544	0.863489	0.864648	0.853920	0.842552	0.864037	
957.675659	0.864558	0.863943	0.853761	0.840273	0.863353	
959.243530	0.863033	0.863218	0.853450	0.841714	0.863106	
960.811340	0.862993	0.864774	0.854359	0.841464	0.865092	
962.378906	0.863715	0.864227	0.854146	0.842042	0.864380	
963.946167	0.863761	0.864218	0.855407	0.843242	0.864517	
965.513367	0.863123	0.864198	0.852651	0.841987	0.864808	
967.080383	0.862947	0.864720	0.855362	0.842480	0.864728	
968.647156	0.861545	0.863580	0.853360	0.842837	0.863477	
970.213684	0.865170	0.864335	0.854643	0.842574	0.864892	
971.780090	0.863628	0.864466	0.854349	0.841422	0.863863	
973.346313	0.863362	0.864041	0.856210	0.840882	0.863209	
974.912231	0.863202	0.864420	0.854664	0.842226	0.863702	
976.478027	0.863138	0.864139	0.852612	0.841394	0.864073	
978.043579	0.864241	0.864218	0.853880	0.840930	0.862894	
979.609009	0.863936	0.863300	0.853444	0.842898	0.864303	
981.174133	0.863794	0.864827	0.853883	0.841669	0.864325	
982.739075	0.863478	0.865012	0.855111	0.840182	0.864238	
984.303833	0.862959	0.864513	0.854118	0.844172	0.863078	
985.868347	0.864027	0.864425	0.853883	0.843313	0.863365	
987.432739	0.863505	0.864751	0.854446	0.841442	0.863721	
988.996887	0.863795	0.864564	0.853331	0.842544	0.862996	
990.560852	0.863215	0.865216	0.854276	0.841899	0.865912	
992.124634	0.862456	0.864353	0.854547	0.842285	0.863685	
993.688171	0.861998	0.863758	0.852279	0.841156	0.862338	
995.251465	0.862631	0.864123	0.852972	0.843527	0.862533	
996.814575	0.864648	0.863890	0.855507	0.843234	0.866557	
998.377563	0.863651	0.864148	0.853556	0.840856	0.863867	
999.940247	0.863211	0.865944	0.855541	0.842652	0.864093	
1013.382019	0.866122	0.865738	0.854852	0.848651	0.865467	
1016.810181	0.866446	0.865859	0.855877	0.847912	0.866570	
1020.238159	0.865519	0.866502	0.855783	0.848445	0.866913	
1023.666199	0.866132	0.864073	0.854886	0.849424	0.865889	
1027.094238	0.866920	0.867418	0.856005	0.848078	0.865900	
1030.522217	0.864417	0.866092	0.855972	0.848263	0.866084	
1033.950073	0.868058	0.867394	0.856273	0.848134	0.864714	
1037.378174	0.866421	0.866770	0.856664	0.847933	0.866110	
1040.805908	0.866565	0.868379	0.857973	0.847931	0.866405	
1044.233887	0.866851	0.869373	0.858614	0.849039	0.866012	
1047.661865	0.867204	0.867787	0.857504	0.850315	0.866394	
1051.089722	0.868127	0.869731	0.857818	0.849674	0.867463	
1054.517578	0.867188	0.868639	0.856889	0.850076	0.866952	
1057.945557	0.867889	0.867364	0.857995	0.850540	0.868192	
1061.373413	0.869904	0.870742	0.860293	0.852621	0.870308	
1064.801392	0.868022	0.869162	0.860037	0.851239	0.868365	
1068.229248	0.872890	0.873528	0.864459	0.856522	0.874306	
1071.657227	0.869464	0.869982	0.860783	0.852434	0.871502	
1075.085205	0.877206	0.875984	0.868841	0.860193	0.877315	
1078.513184	0.873416	0.874036	0.864000	0.856419	0.872675	
1081.941162	0.878776	0.880154	0.869317	0.863970	0.878459	
1085.369263	0.874695	0.875011	0.866750	0.858494	0.874768	
1088.797241	0.879776	0.879606	0.870791	0.864355	0.879878	
1092.225342	0.877018	0.877253	0.869148	0.861717	0.879289	
1095.653564	0.878212	0.878510	0.871886	0.863402	0.880612	
1099.081787	0.880373	0.880038	0.871028	0.862768	0.879919	
1102.510010	0.879672	0.880378	0.871611	0.863596	0.879729	
1105.938232	0.879491	0.880026	0.872126	0.863752	0.879664	
1109.366577	0.879838	0.881574	0.872824	0.863764	0.879370	
1112.795044	0.883003	0.881920	0.874454	0.865788	0.880411	
1116.223389	0.880681	0.878536	0.872945	0.865222	0.880443	
1119.651978	0.882005	0.881810	0.873703	0.866008	0.882474	
1123.080566	0.879353	0.879923	0.872611	0.865098	0.880136	
1126.509155	0.882746	0.881943	0.874957	0.866180	0.883039	
1129.937866	0.879323	0.880096	0.872487	0.866177	0.881143	
1133.366699	0.882994	0.881081	0.875005	0.868877	0.883382	
1136.795654	0.879724	0.880091	0.873367	0.865760	0.881131	
1140.224487	0.882734	0.882194	0.875245	0.867660	0.882897	
1143.653564	0.879355	0.878403	0.872252	0.865289	0.881138	
1147.082764	0.881787	0.883253	0.875827	0.867535	0.882692	
1150.511963	0.880623	0.880763	0.873533	0.866148	0.881515	
1153.941162	0.882845	0.883147	0.876939	0.867418	0.882446	
1157.370605	0.880370	0.880992	0.873825	0.865286	0.880344	
1160.800049	0.882041	0.882842	0.876201	0.868239	0.883893	
1164.229736	0.879759	0.879282	0.873294	0.865956	0.881804	
1167.659424	0.882343	0.883218	0.876790	0.869051	0.884794	
1171.089233	0.879861	0.879799	0.873500	0.865864	0.882007	
1174.519165	0.882509	0.884177	0.877426	0.870739	0.885791	
1177.949219	0.879314	0.880743	0.874639	0.865517	0.881676	
1181.379395	0.884432	0.884661	0.877903	0.868948	0.886147	
1184.809814	0.880335	0.880737	0.873250	0.865897	0.881319	
1188.240112	0.883542	0.884680	0.877278	0.871841	0.886642	
1191.670654	0.880469	0.879079	0.874753	0.866682	0.882456	
1195.101318	0.883667	0.886219	0.880072	0.869818	0.885889	
1198.532227	0.877973	0.879828	0.873061	0.866208	0.881466	
1201.963135	0.884927	0.886771	0.879120	0.871827	0.886445	
1205.394287	0.879085	0.880207	0.873668	0.867307	0.881743	
1208.825562	0.885482	0.887183	0.880402	0.872751	0.887262	
1212.256958	0.879761	0.881956	0.874544	0.866862	0.881366	
1215.688477	0.885985	0.884671	0.878524	0.873443	0.888569	
1219.120239	0.880250	0.879806	0.874874	0.865967	0.882714	
1222.552124	0.885055	0.885808	0.880114	0.872888	0.887321	
1225.984131	0.880264	0.880785	0.875175	0.868933	0.883681	
1229.416260	0.884780	0.885472	0.880055	0.873375	0.887696	
1232.848755	0.881536	0.881834	0.875723	0.867705	0.882975	
1236.281250	0.885445	0.885752	0.879798	0.874553	0.889132	
1239.713989	0.880824	0.881002	0.874606	0.869211	0.885054	
1243.146851	0.885936	0.887438	0.879994	0.872221	0.886575	
1246.579956	0.881091	0.880364	0.875490	0.869189	0.884220	
1250.013306	0.887370	0.885507	0.881292	0.875351	0.891237	
1253.446655	0.881611	0.883670	0.876527	0.869174	0.884785	
1256.880371	0.886998	0.888174	0.881454	0.876421	0.890312	
1260.314209	0.881685	0.882434	0.877071	0.870536	0.884639	
1263.748291	0.886051	0.886103	0.881383	0.874458	0.889740	
1267.182495	0.881649	0.883060	0.876623	0.869547	0.885023	
1270.616943	0.885522	0.887848	0.881071	0.876525	0.891473	
1274.051514	0.881748	0.881744	0.876527	0.870302	0.885517	
1277.486450	0.887629	0.888510	0.883393	0.878609	0.891342	
1280.921631	0.881080	0.882928	0.877188	0.870540	0.885092	
1284.356812	0.888911	0.891560	0.884392	0.877099	0.892131	
1287.792358	0.883272	0.884269	0.876964	0.869919	0.886451	
1291.228149	0.888142	0.888601	0.883671	0.877019	0.893288	
1294.664063	0.885273	0.885294	0.878110	0.870619	0.888173	
1298.100342	0.889789	0.891219	0.885052	0.880485	0.894066	
1301.536743	0.883068	0.883830	0.878195	0.872964	0.888159	
1304.973389	0.889957	0.891764	0.886971	0.878618	0.894681	
1308.410400	0.883034	0.884968	0.878820	0.870544	0.885340	
1311.847534	0.891653	0.894541	0.887044	0.880256	0.894704	
1315.284912	0.885615	0.885592	0.881322	0.872451	0.887999	
1318.722534	0.892780	0.895580	0.888536	0.881173	0.896359	
1322.160522	0.884946	0.886248	0.878279	0.873992	0.887536	
1325.598755	0.892522	0.894918	0.889522	0.881477	0.897470	
1329.037109	0.885188	0.885754	0.882218	0.874623	0.889926	
1332.475830	0.893204	0.894024	0.888538	0.882941	0.897030	
1335.914795	0.887752	0.886165	0.880764	0.875200	0.890213	
1339.354004	0.893803	0.893725	0.888714	0.881521	0.898319	
1342.793579	0.887987	0.889845	0.885239	0.877102	0.892952	
1346.233276	0.893702	0.894666	0.889972	0.881058	0.897533	
1349.673462	0.889579	0.890665	0.885364	0.877081	0.891359	
1353.113770	0.892824	0.892503	0.887930	0.880864	0.899137	
1356.554443	0.892353	0.894055	0.886721	0.881244	0.896475	
1359.995361	0.889775	0.889454	0.883825	0.877479	0.895105	
1363.436523	0.895342	0.898001	0.890420	0.882656	0.897888	
1366.878052	0.885457	0.885664	0.878200	0.871169	0.889495	
1370.319824	0.894988	0.894531	0.888008	0.883484	0.900852	
1373.761963	0.887532	0.886036	0.880920	0.871580	0.891979	
1377.204346	0.896696	0.895439	0.890667	0.884631	0.899413	
1380.647217	0.881809	0.884491	0.877195	0.867904	0.884386	
1384.090210	0.885736	0.883127	0.879064	0.870194	0.889678	
1387.533569	0.882877	0.882495	0.876848	0.868707	0.886443	
1390.977295	0.886398	0.891298	0.884653	0.873173	0.891276	
1394.421265	0.881291	0.882880	0.876489	0.867685	0.887381	
1397.865601	0.890511	0.892128	0.886335	0.877751	0.896559	
1401.310303	0.879669	0.884393	0.877185	0.870844	0.885344	
1404.755249	0.893879	0.900734	0.892838	0.885321	0.899352	
1408.200562	0.882646	0.889121	0.882056	0.873415	0.887914	
1411.646240	0.899110	0.899207	0.893625	0.886768	0.902794	
1415.092285	0.889733	0.887555	0.883506	0.876324	0.896713	
1418.538574	0.899277	0.900048	0.895943	0.885631	0.902222	
1421.985352	0.888356	0.889406	0.885340	0.875913	0.893558	
1425.432373	0.900160	0.902315	0.896160	0.886489	0.904243	
1428.879761	0.890662	0.891273	0.885838	0.878309	0.894053	
1432.327515	0.898730	0.901765	0.896438	0.888767	0.903492	
1435.775635	0.892682	0.896671	0.890292	0.881559	0.898102	
1439.224243	0.900786	0.902507	0.896037	0.889464	0.905237	
1442.673096	0.893180	0.895495	0.889986	0.881057	0.898442	
1446.122314	0.899553	0.902210	0.895742	0.889320	0.905156	
1449.571899	0.889052	0.891936	0.886603	0.877061	0.895172	
1453.021851	0.901963	0.901994	0.898944	0.889386	0.905651	
1456.472290	0.895128	0.894928	0.890407	0.881525	0.898186	
1459.923096	0.900557	0.901884	0.897739	0.891810	0.905551	
1463.374268	0.891706	0.892035	0.886614	0.879997	0.896615	
1466.825684	0.903057	0.903459	0.899253	0.890324	0.908035	
1470.277588	0.891430	0.889232	0.886012	0.876270	0.897035	
1473.729980	0.903311	0.903332	0.898993	0.891182	0.907814	
1477.182739	0.890705	0.891894	0.886253	0.879330	0.898822	
1480.635864	0.901354	0.905381	0.898804	0.893155	0.909496	
1484.089355	0.891481	0.891602	0.887025	0.880186	0.898222	
1487.543335	0.901123	0.904108	0.897798	0.890765	0.909432	
1490.997681	0.887388	0.888918	0.884907	0.876331	0.895144	
1494.452393	0.902815	0.904481	0.900219	0.890276	0.908304	
1497.907715	0.887941	0.890869	0.884379	0.877635	0.893953	
1501.363281	0.902825	0.901418	0.896857	0.890170	0.906789	
1504.819336	0.886709	0.886773	0.883144	0.876127	0.894602	
1508.275879	0.898401	0.899955	0.895974	0.885944	0.904821	
1511.732788	0.888158	0.888851	0.885406	0.877705	0.895755	
1515.190186	0.900757	0.901690	0.896838	0.888271	0.908147	
1518.647949	0.889205	0.891740	0.884517	0.876474	0.892578	
1522.106201	0.894766	0.898186	0.893535	0.883421	0.901210	
1525.564819	0.887220	0.889410	0.885513	0.876987	0.893735	
1529.024048	0.894272	0.893545	0.889807	0.880540	0.898195	
1532.483643	0.887710	0.892008	0.887452	0.876885	0.893868	
1535.943604	0.893130	0.895378	0.889720	0.877629	0.896431	
1539.404053	0.889208	0.891382	0.886687	0.877245	0.896431	
1542.865112	0.890440	0.890794	0.887125	0.877960	0.896102	
1546.326538	0.891224	0.893078	0.888408	0.879236	0.897143	
1549.788330	0.889720	0.892084	0.887331	0.877187	0.894831	
1553.250732	0.890322	0.893137	0.888969	0.880023	0.895764	
1556.713623	0.889860	0.889905	0.886162	0.879133	0.896561	
1560.177002	0.893645	0.893593	0.888299	0.879680	0.897785	
1563.640869	0.891160	0.892755	0.885598	0.878837	0.895008	
1567.105103	0.892790	0.894146	0.890123	0.880141	0.898861	
1570.569946	0.891101	0.890656	0.886504	0.875482	0.894388	
1574.035156	0.894000	0.896422	0.889389	0.882238	0.899246	
1577.500977	0.892019	0.894085	0.888244	0.879737	0.899048	
1580.967163	0.894188	0.895999	0.890624	0.882664	0.897994	
1584.433960	0.890514	0.893922	0.889335	0.876801	0.894376	
1587.901245	0.893744	0.894379	0.891293	0.882416	0.899439	
1591.369019	0.892492	0.894857	0.889109	0.881607	0.897011	
1594.837402	0.892727	0.897025	0.891677	0.882438	0.900226	
1598.306152	0.893027	0.896581	0.891121	0.878611	0.896615	
1601.775513	0.895001	0.899013	0.892302	0.878483	0.898490	
1605.245361	0.894228	0.897864	0.891081	0.877493	0.894915	
1608.715698	0.894082	0.895107	0.892332	0.882805	0.900510	
1612.186768	0.894089	0.899792	0.891028	0.882993	0.900179	
1615.658081	0.891104	0.896499	0.890790	0.882388	0.899906	
1619.130127	0.893142	0.895889	0.889790	0.881967	0.898479	
1622.602661	0.894127	0.898962	0.891939	0.883818	0.901246	
1626.075684	0.894080	0.899640	0.891437	0.883212	0.898755	
1629.549194	0.895190	0.900932	0.892659	0.881049	0.898460	
1633.023438	0.892956	0.895763	0.892225	0.884583	0.900715	
1636.498169	0.894803	0.895472	0.891491	0.883170	0.901364	
1639.973389	0.892339	0.897367	0.892581	0.885182	0.902465	
1643.449219	0.893677	0.895386	0.892374	0.883461	0.899826	
1646.925537	0.895936	0.896478	0.891870	0.884638	0.901715	
1650.402588	0.894228	0.896492	0.891448	0.885167	0.900322	
1653.880127	0.894067	0.898369	0.890302	0.882652	0.899813	
1657.358032	0.897496	0.898174	0.893093	0.883426	0.899962	
1660.836670	0.896971	0.899906	0.892314	0.882526	0.899740	
1664.316040	0.895533	0.897598	0.892832	0.884240	0.900056	
1667.795654	0.896031	0.900774	0.893557	0.885845	0.897105	
1671.276123	0.895519	0.898866	0.893116	0.884839	0.900174	
1674.757080	0.893786	0.896560	0.890825	0.882321	0.901120	
1678.238647	0.892865	0.895700	0.891833	0.881300	0.898771	
1681.720947	0.894200	0.897671	0.892390	0.882971	0.903364	
1685.203491	0.893475	0.896422	0.893793	0.885754	0.900476	
1688.686890	0.892749	0.895452	0.889653	0.885206	0.899385	