SpectraSuite Data File
++++++++++++++++++++++++++++++++++++
Date: Tue Sep 05 08:55:27 CEST 2023
User: TAMINATOR
Dark Spectrum Present: Yes
Reference Spectrum Present: No
Number of Sampled Component Spectra: 1
Spectrometers: FLMS04432
Integration Time (usec): 600000 (FLMS04432)
Spectra Averaged: 1 (FLMS04432)
Boxcar Smoothing: 0 (FLMS04432)
Correct for Electrical Dark: No (FLMS04432)
Strobe/Lamp Enabled: No (FLMS04432)
Correct for Detector Non-linearity: No (FLMS04432)
Correct for Stray Light: No (FLMS04432)
Number of Pixels in Processed Spectrum: 2048
>>>>>Begin Processed Spectral Data<<<<<
188.46	43.69
188.85	43.69
189.24	43.69
189.63	-24.27
190.02	-31.55
190.41	-12.14
190.80	75.24
191.19	55.83
191.58	109.23
191.96	12.14
192.35	46.12
192.74	43.69
193.13	160.20
193.52	82.53
193.91	46.12
194.30	99.52
194.69	143.21
195.08	16.99
195.47	80.10
195.86	84.95
196.24	1427.21
196.63	118.93
197.02	29.13
197.41	43.69
197.80	145.63
198.19	58.25
198.58	9.71
198.96	58.25
199.35	-12.14
199.74	92.23
200.13	92.23
200.52	121.36
200.91	92.23
201.29	138.35
201.68	-70.39
202.07	109.22
202.46	65.53
202.85	65.54
203.24	12.14
203.62	150.49
204.01	58.25
204.40	33.98
204.79	60.68
205.17	67.96
205.56	41.26
205.95	-4.85
206.34	60.68
206.73	135.92
207.11	53.40
207.50	145.63
207.89	133.50
208.28	33.98
208.66	82.53
209.05	70.39
209.44	-9.71
209.83	114.08
210.21	89.81
210.60	89.81
210.99	82.53
211.37	228.16
211.76	97.09
212.15	133.50
212.54	-50.97
212.92	80.10
213.31	196.61
213.70	67.96
214.08	41.26
214.47	-2.43
214.86	60.68
215.24	84.95
215.63	48.54
216.02	89.81
216.40	109.22
216.79	-29.13
217.18	4.85
217.56	24.27
217.95	101.94
218.33	41.26
218.72	150.49
219.11	21.85
219.49	-36.41
219.88	128.64
220.27	21.84
220.65	50.97
221.04	-12.14
221.42	167.48
221.81	155.34
222.20	75.24
222.58	29.13
222.97	38.84
223.35	80.10
223.74	82.53
224.13	26.70
224.51	-19.42
224.90	82.53
225.28	19.42
225.67	133.50
226.05	104.37
226.44	121.36
226.82	84.95
227.21	-58.25
227.59	46.12
227.98	165.05
228.36	138.35
228.75	29.13
229.14	-82.53
229.52	48.54
229.91	19.42
230.29	94.66
230.68	4.85
231.06	80.10
231.45	145.63
231.83	14.56
232.21	14.56
232.60	109.22
232.98	99.52
233.37	0.00
233.75	-2.43
234.14	36.41
234.52	109.23
234.91	140.78
235.29	101.94
235.68	89.81
236.06	138.35
236.44	94.66
236.83	75.24
237.21	16.99
237.60	-53.40
237.98	46.12
238.37	58.25
238.75	36.41
239.13	-43.69
239.52	12.14
239.90	133.50
240.29	-19.42
240.67	182.04
241.05	89.81
241.44	-80.10
241.82	53.40
242.20	97.09
242.59	150.49
242.97	109.22
243.35	-26.70
243.74	46.12
244.12	43.69
244.51	46.12
244.89	-12.14
245.27	53.40
245.66	-4.85
246.04	46.12
246.42	58.25
246.80	191.75
247.19	104.37
247.57	80.10
247.95	-46.12
248.34	43.69
248.72	14.56
249.10	-14.56
249.49	121.36
249.87	-7.28
250.25	2.43
250.63	133.50
251.02	80.10
251.40	-12.14
251.78	75.24
252.16	99.52
252.55	148.06
252.93	145.63
253.31	-4.85
253.69	77.67
254.08	60.68
254.46	135.92
254.84	43.69
255.22	60.68
255.60	140.78
255.99	89.81
256.37	14.56
256.75	84.95
257.13	99.52
257.51	143.21
257.90	29.13
258.28	12.14
258.66	-12.14
259.04	99.52
259.42	121.36
259.81	53.40
260.19	121.36
260.57	140.78
260.95	9.71
261.33	89.81
261.71	128.64
262.09	36.41
262.48	75.24
262.86	24.27
263.24	53.40
263.62	155.34
264.00	63.11
264.38	94.66
264.76	-2.43
265.14	94.66
265.53	92.23
265.91	118.93
266.29	80.10
266.67	150.49
267.05	116.51
267.43	36.41
267.81	80.10
268.19	99.52
268.57	138.35
268.95	97.09
269.33	33.98
269.71	-26.70
270.09	50.97
270.47	-26.70
270.85	92.23
271.23	41.26
271.62	65.53
272.00	65.53
272.38	48.54
272.76	65.53
273.14	26.70
273.52	46.12
273.90	172.33
274.28	121.36
274.66	140.78
275.04	155.34
275.42	118.93
275.80	33.98
276.18	167.48
276.55	109.23
276.93	150.49
277.31	109.23
277.69	109.22
278.07	0.00
278.45	-26.70
278.83	80.10
279.21	162.62
279.59	87.38
279.97	63.11
280.35	128.64
280.73	41.26
281.11	169.91
281.49	121.36
281.87	94.66
282.25	19.42
282.62	-7.28
283.00	21.85
283.38	123.79
283.76	172.33
284.14	48.54
284.52	60.68
284.90	-48.54
285.28	9.71
285.65	111.65
286.03	82.53
286.41	4.85
286.79	19.42
287.17	-14.56
287.55	26.70
287.93	118.93
288.30	-50.97
288.68	58.25
289.06	70.39
289.44	29.13
289.82	70.39
290.20	58.25
290.57	63.11
290.95	-46.12
291.33	111.65
291.71	65.54
292.09	-63.11
292.46	-26.70
292.84	9.71
293.22	104.37
293.60	58.25
293.97	128.64
294.35	14.56
294.73	63.11
295.11	82.53
295.48	77.67
295.86	128.64
296.24	99.52
296.62	152.91
296.99	70.39
297.37	58.25
297.75	177.19
298.13	16.99
298.50	26.70
298.88	-4.85
299.26	-63.11
299.63	24.27
300.01	16.99
300.39	143.21
300.77	-2.43
301.14	41.26
301.52	2.43
301.90	-84.95
302.27	133.50
302.65	46.12
303.03	33.98
303.40	60.68
303.78	82.53
304.16	143.21
304.53	31.55
304.91	75.24
305.28	-4.85
305.66	128.64
306.04	53.40
306.41	169.91
306.79	75.24
307.17	-31.55
307.54	7.28
307.92	-31.55
308.29	41.26
308.67	84.95
309.05	7.28
309.42	101.94
309.80	106.80
310.17	43.69
310.55	131.07
310.92	-29.13
311.30	16.99
311.68	63.11
312.05	-2.43
312.43	138.35
312.80	145.63
313.18	7.28
313.55	26.70
313.93	169.91
314.30	60.68
314.68	87.38
315.05	145.63
315.43	12.14
315.80	118.93
316.18	82.53
316.55	-4.85
316.93	0.00
317.30	9.71
317.68	104.37
318.05	31.55
318.43	-55.83
318.80	87.38
319.18	87.38
319.55	99.52
319.93	67.96
320.30	128.64
320.68	-29.13
321.05	14.56
321.43	9.71
321.80	97.09
322.17	43.69
322.55	126.22
322.92	60.68
323.30	131.07
323.67	155.34
324.05	133.50
324.42	169.91
324.79	182.04
325.17	322.82
325.54	402.92
325.92	449.04
326.29	759.72
326.66	1031.57
327.04	1395.65
327.41	1779.15
327.78	2101.97
328.16	2417.51
328.53	2672.37
328.91	2968.49
329.28	3383.55
329.65	3594.72
330.03	3835.01
330.40	4184.53
330.77	4203.95
331.15	4240.36
331.52	4271.91
331.89	3883.56
332.27	3825.30
332.64	3495.20
333.01	3055.87
333.38	2854.41
333.76	2446.64
334.13	2063.14
334.50	1655.37
334.88	1351.96
335.25	1063.12
335.62	912.64
335.99	662.63
336.37	473.31
336.74	466.03
337.11	463.60
337.48	247.58
337.86	300.98
338.23	152.91
338.60	218.45
338.97	16.99
339.35	16.99
339.72	87.38
340.09	87.38
340.46	70.39
340.84	106.80
341.21	41.26
341.58	87.38
341.95	106.80
342.32	177.19
342.70	131.07
343.07	16.99
343.44	155.34
343.81	160.20
344.18	58.25
344.55	89.81
344.93	58.25
345.30	-33.98
345.67	60.68
346.04	126.22
346.41	72.82
346.78	-48.54
347.15	55.83
347.53	111.65
347.90	121.36
348.27	-41.26
348.64	77.67
349.01	77.67
349.38	148.06
349.75	-36.41
350.12	48.54
350.49	43.69
350.87	-14.56
351.24	89.81
351.61	89.81
351.98	-9.71
352.35	65.54
352.72	60.68
353.09	121.36
353.46	82.53
353.83	97.09
354.20	126.22
354.57	67.96
354.94	7.28
355.31	55.83
355.68	-9.71
356.05	33.98
356.42	19.42
356.79	53.40
357.16	111.65
357.53	160.20
357.90	94.66
358.27	97.09
358.64	-16.99
359.01	-21.84
359.38	99.52
359.75	-26.70
360.12	121.36
360.49	77.67
360.86	38.84
361.23	24.27
361.60	-46.12
361.97	118.93
362.34	82.53
362.71	92.23
363.08	152.91
363.45	7.28
363.82	58.25
364.19	21.85
364.56	55.83
364.93	72.82
365.30	29.13
365.66	43.69
366.03	167.48
366.40	43.69
366.77	36.41
367.14	-24.27
367.51	7.28
367.88	-53.40
368.25	94.66
368.62	55.83
368.98	157.77
369.35	48.54
369.72	75.24
370.09	-7.28
370.46	58.25
370.83	-7.28
371.20	29.13
371.56	133.50
371.93	-14.56
372.30	72.82
372.67	67.96
373.04	24.27
373.41	89.81
373.77	21.85
374.14	75.24
374.51	-14.56
374.88	70.39
375.25	60.68
375.61	46.12
375.98	94.66
376.35	36.41
376.72	0.00
377.08	2.43
377.45	-55.83
377.82	53.40
378.19	53.40
378.55	87.38
378.92	82.53
379.29	16.99
379.66	99.52
380.02	36.41
380.39	72.82
380.76	123.79
381.13	19.42
381.49	84.95
381.86	80.10
382.23	46.12
382.59	41.26
382.96	72.82
383.33	87.38
383.70	133.50
384.06	77.67
384.43	101.94
384.80	65.53
385.16	-9.71
385.53	33.98
385.90	24.27
386.26	89.81
386.63	60.68
387.00	9.71
387.36	104.37
387.73	-84.95
388.09	118.93
388.46	-12.14
388.83	-19.42
389.19	138.35
389.56	26.70
389.93	58.25
390.29	31.55
390.66	97.09
391.02	70.39
391.39	41.26
391.75	97.09
392.12	14.56
392.49	-63.11
392.85	63.11
393.22	-9.71
393.58	29.13
393.95	-41.26
394.31	36.41
394.68	7.28
395.05	101.94
395.41	135.92
395.78	77.67
396.14	7.28
396.51	174.76
396.87	123.79
397.24	-4.85
397.60	77.67
397.97	77.67
398.33	111.65
398.70	99.52
399.06	55.83
399.43	87.38
399.79	145.63
400.16	94.66
400.52	80.10
400.89	72.82
401.25	4.85
401.62	121.36
401.98	75.24
402.35	-21.84
402.71	55.83
403.07	50.97
403.44	80.10
403.80	26.70
404.17	138.35
404.53	38.84
404.90	133.50
405.26	-2.43
405.62	126.22
405.99	55.83
406.35	38.84
406.72	50.97
407.08	152.91
407.44	53.40
407.81	-84.95
408.17	-4.85
408.54	2.43
408.90	63.11
409.26	50.97
409.63	-16.99
409.99	-26.70
410.35	2.43
410.72	104.37
411.08	19.42
411.44	-116.51
411.81	0.00
412.17	106.80
412.53	-50.97
412.90	63.11
413.26	48.54
413.62	135.92
413.99	19.42
414.35	16.99
414.71	177.19
415.08	121.36
415.44	92.23
415.80	9.71
416.16	65.53
416.53	109.22
416.89	55.83
417.25	41.26
417.61	111.65
417.98	65.53
418.34	48.54
418.70	43.69
419.06	114.08
419.43	-12.14
419.79	-21.85
420.15	48.54
420.51	-7.28
420.88	-14.56
421.24	29.13
421.60	89.81
421.96	82.53
422.32	41.26
422.69	-12.14
423.05	53.40
423.41	104.37
423.77	-16.99
424.13	16.99
424.50	-7.28
424.86	55.83
425.22	184.47
425.58	12.14
425.94	63.11
426.30	99.52
426.67	48.54
427.03	-24.27
427.39	84.95
427.75	41.26
428.11	41.26
428.47	43.69
428.83	65.53
429.19	77.67
429.56	-48.54
429.92	58.25
430.28	152.91
430.64	77.67
431.00	87.38
431.36	101.94
431.72	9.71
432.08	75.24
432.44	63.11
432.80	208.74
433.16	109.22
433.52	77.67
433.89	46.12
434.25	-21.85
434.61	152.91
434.97	77.67
435.33	-14.56
435.69	-41.26
436.05	41.26
436.41	109.22
436.77	87.38
437.13	31.55
437.49	14.56
437.85	16.99
438.21	-118.93
438.57	38.84
438.93	97.09
439.29	21.85
439.65	77.67
440.01	-31.55
440.37	38.84
440.73	63.11
441.09	14.56
441.45	121.36
441.81	138.35
442.16	14.56
442.52	123.79
442.88	114.08
443.24	50.97
443.60	111.65
443.96	41.26
444.32	94.66
444.68	21.84
445.04	72.82
445.40	104.37
445.76	60.68
446.12	72.82
446.48	53.40
446.83	-31.55
447.19	33.98
447.55	165.05
447.91	7.28
448.27	-7.28
448.63	72.82
448.99	99.52
449.34	-4.85
449.70	-55.83
450.06	77.67
450.42	109.22
450.78	150.49
451.14	36.41
451.50	152.91
451.85	77.67
452.21	38.84
452.57	70.39
452.93	-7.28
453.29	135.92
453.64	165.05
454.00	126.22
454.36	-2.43
454.72	67.96
455.08	97.09
455.43	63.11
455.79	82.53
456.15	46.12
456.51	33.98
456.86	63.11
457.22	-50.97
457.58	89.81
457.94	89.81
458.29	26.70
458.65	46.12
459.01	36.41
459.37	77.67
459.72	-43.69
460.08	109.22
460.44	-92.23
460.79	65.54
461.15	29.13
461.51	12.14
461.86	123.79
462.22	-2.43
462.58	87.38
462.94	77.67
463.29	157.77
463.65	169.91
464.01	16.99
464.36	48.54
464.72	9.71
465.08	48.54
465.43	65.53
465.79	-21.85
466.14	29.13
466.50	9.71
466.86	121.36
467.21	138.35
467.57	-41.26
467.93	165.05
468.28	63.11
468.64	182.04
468.99	55.83
469.35	65.54
469.71	97.09
470.06	50.97
470.42	84.95
470.77	109.22
471.13	101.94
471.48	33.98
471.84	2.43
472.20	31.55
472.55	-33.98
472.91	65.53
473.26	36.41
473.62	-16.99
473.97	-58.25
474.33	128.64
474.68	-65.54
475.04	41.26
475.39	109.22
475.75	140.78
476.10	118.93
476.46	-38.84
476.81	-7.28
477.17	104.37
477.52	75.24
477.88	116.51
478.23	-24.27
478.59	2.43
478.94	-41.26
479.30	-41.26
479.65	160.20
480.01	114.08
480.36	116.51
480.72	116.51
481.07	33.98
481.42	118.93
481.78	172.33
482.13	0.00
482.49	111.65
482.84	31.55
483.20	97.09
483.55	12.14
483.90	33.98
484.26	70.39
484.61	70.39
484.96	53.40
485.32	75.24
485.67	65.53
486.03	-41.26
486.38	82.53
486.73	21.85
487.09	-60.68
487.44	177.19
487.79	-33.98
488.15	26.70
488.50	-14.56
488.85	-7.28
489.21	2.43
489.56	-7.28
489.91	82.53
490.27	31.55
490.62	116.51
490.97	58.25
491.33	-36.41
491.68	12.14
492.03	-55.83
492.39	101.94
492.74	9.71
493.09	67.96
493.44	-33.98
493.80	31.55
494.15	-7.28
494.50	101.94
494.85	-53.40
495.21	75.24
495.56	31.55
495.91	24.27
496.26	46.12
496.62	138.35
496.97	155.34
497.32	-21.84
497.67	138.35
498.03	82.53
498.38	104.37
498.73	72.82
499.08	92.23
499.43	133.50
499.79	-50.97
500.14	41.26
500.49	-41.26
500.84	152.91
501.19	-9.71
501.54	26.70
501.90	84.95
502.25	58.25
502.60	-16.99
502.95	77.67
503.30	94.66
503.65	77.67
504.00	-48.54
504.36	38.84
504.71	82.53
505.06	38.84
505.41	38.84
505.76	111.65
506.11	72.82
506.46	123.79
506.81	0.00
507.16	-33.98
507.52	31.55
507.87	2.43
508.22	9.71
508.57	48.54
508.92	55.83
509.27	121.36
509.62	53.40
509.97	19.42
510.32	160.20
510.67	118.93
511.02	16.99
511.37	70.39
511.72	-19.42
512.07	94.66
512.42	53.40
512.77	-9.71
513.12	97.09
513.47	87.38
513.82	33.98
514.17	65.54
514.52	131.07
514.87	29.13
515.22	38.84
515.57	109.22
515.92	121.36
516.27	-16.99
516.62	131.07
516.97	-14.56
517.32	33.98
517.67	70.39
518.02	58.25
518.37	60.68
518.72	118.93
519.07	104.37
519.42	143.21
519.77	-9.71
520.12	94.66
520.46	29.13
520.81	26.70
521.16	131.07
521.51	33.98
521.86	114.08
522.21	179.61
522.56	169.91
522.91	31.55
523.26	123.79
523.60	24.27
523.95	201.46
524.30	-12.14
524.65	9.71
525.00	70.39
525.35	55.83
525.70	189.32
526.04	2.43
526.39	43.69
526.74	-7.28
527.09	-43.69
527.44	41.26
527.78	0.00
528.13	41.26
528.48	-21.85
528.83	109.22
529.18	4.85
529.52	-58.25
529.87	87.38
530.22	38.84
530.57	126.22
530.92	118.93
531.26	203.89
531.61	67.96
531.96	29.13
532.31	43.69
532.65	101.94
533.00	82.53
533.35	160.20
533.70	-43.69
534.04	191.75
534.39	133.50
534.74	133.50
535.08	80.10
535.43	31.55
535.78	94.66
536.13	48.54
536.47	196.60
536.82	84.95
537.17	-50.97
537.51	-26.70
537.86	-33.98
538.21	97.09
538.55	70.39
538.90	38.84
539.25	48.54
539.59	-16.99
539.94	-24.27
540.29	101.94
540.63	92.23
540.98	77.67
541.32	-77.67
541.67	-41.26
542.02	89.81
542.36	36.41
542.71	116.51
543.05	-14.56
543.40	106.80
543.75	84.95
544.09	-72.82
544.44	97.09
544.78	31.55
545.13	48.54
545.48	177.19
545.82	-7.28
546.17	145.63
546.51	-4.85
546.86	38.84
547.20	77.67
547.55	140.78
547.89	72.82
548.24	31.55
548.58	228.16
548.93	72.82
549.28	123.79
549.62	191.75
549.97	21.85
550.31	-65.53
550.66	7.28
551.00	-2.43
551.34	31.55
551.69	19.42
552.03	-77.67
552.38	43.69
552.72	82.53
553.07	12.14
553.41	38.84
553.76	106.80
554.10	7.28
554.45	16.99
554.79	9.71
555.14	126.22
555.48	-14.56
555.82	177.19
556.17	233.01
556.51	135.92
556.86	0.00
557.20	-16.99
557.54	26.70
557.89	72.82
558.23	63.11
558.58	87.38
558.92	24.27
559.26	-26.70
559.61	-2.43
559.95	55.83
560.29	-14.56
560.64	138.35
560.98	33.98
561.33	43.69
561.67	72.82
562.01	16.99
562.36	97.09
562.70	-65.53
563.04	41.26
563.39	-16.99
563.73	58.25
564.07	72.82
564.41	114.08
564.76	152.91
565.10	12.14
565.44	63.11
565.79	-75.24
566.13	99.52
566.47	9.71
566.81	50.97
567.16	60.68
567.50	55.83
567.84	123.79
568.18	19.42
568.53	99.52
568.87	77.67
569.21	94.66
569.55	109.22
569.90	140.78
570.24	65.54
570.58	43.69
570.92	80.10
571.27	12.14
571.61	60.68
571.95	-126.22
572.29	26.70
572.63	12.14
572.97	75.24
573.32	92.23
573.66	67.96
574.00	121.36
574.34	174.76
574.68	218.45
575.02	12.14
575.37	-19.42
575.71	84.95
576.05	145.63
576.39	99.52
576.73	2.43
577.07	87.38
577.41	24.27
577.76	-4.85
578.10	-50.97
578.44	12.14
578.78	111.65
579.12	-31.55
579.46	75.24
579.80	53.40
580.14	106.80
580.48	41.26
580.82	99.52
581.16	186.90
581.51	70.39
581.85	82.53
582.19	43.69
582.53	84.95
582.87	29.13
583.21	94.66
583.55	-31.55
583.89	84.95
584.23	150.49
584.57	29.13
584.91	-41.26
585.25	118.93
585.59	123.79
585.93	55.83
586.27	-9.71
586.61	-4.85
586.95	92.23
587.29	-58.25
587.63	-2.43
587.97	-24.27
588.31	94.66
588.65	157.77
588.99	63.11
589.33	114.08
589.67	148.06
590.01	-111.65
590.34	-33.98
590.68	75.24
591.02	82.53
591.36	-16.99
591.70	60.68
592.04	118.93
592.38	14.56
592.72	123.79
593.06	2.43
593.40	111.65
593.74	75.24
594.07	-2.43
594.41	-7.28
594.75	58.25
595.09	94.66
595.43	135.92
595.77	26.70
596.11	92.23
596.44	58.25
596.78	-29.13
597.12	-24.27
597.46	58.25
597.80	-2.43
598.14	111.65
598.47	29.13
598.81	-16.99
599.15	-19.42
599.49	12.14
599.83	-7.28
600.17	-63.11
600.50	4.85
600.84	-19.42
601.18	43.69
601.52	121.36
601.85	89.81
602.19	-7.28
602.53	199.03
602.87	138.35
603.20	118.93
603.54	157.77
603.88	165.05
604.22	65.53
604.55	155.34
604.89	126.22
605.23	75.24
605.57	174.76
605.90	67.96
606.24	121.36
606.58	4.85
606.91	-70.39
607.25	67.96
607.59	101.94
607.92	186.90
608.26	128.64
608.60	77.67
608.94	38.84
609.27	41.26
609.61	99.52
609.94	48.54
610.28	4.85
610.62	-9.71
610.95	-16.99
611.29	133.50
611.63	-67.96
611.96	7.28
612.30	97.09
612.64	63.11
612.97	19.42
613.31	77.67
613.64	109.23
613.98	-33.98
614.32	94.66
614.65	92.23
614.99	87.38
615.32	140.78
615.66	70.39
615.99	160.20
616.33	143.21
616.67	-43.69
617.00	133.50
617.34	87.38
617.67	80.10
618.01	99.52
618.34	114.08
618.68	-89.81
619.01	106.80
619.35	24.27
619.68	89.81
620.02	-14.56
620.35	-41.26
620.69	97.09
621.02	80.10
621.36	247.58
621.69	201.46
622.03	104.37
622.36	24.27
622.70	109.22
623.03	75.24
623.37	121.36
623.70	41.26
624.04	21.85
624.37	138.35
624.70	46.12
625.04	21.84
625.37	145.63
625.71	7.28
626.04	179.61
626.38	152.91
626.71	109.23
627.04	82.53
627.38	72.82
627.71	118.93
628.05	55.83
628.38	152.91
628.71	-46.12
629.05	-16.99
629.38	67.96
629.71	126.22
630.05	4.85
630.38	48.54
630.72	-9.71
631.05	82.53
631.38	48.54
631.72	123.79
632.05	33.98
632.38	135.92
632.72	104.37
633.05	-4.85
633.38	55.83
633.71	118.93
634.05	-4.85
634.38	48.54
634.71	-41.26
635.05	92.23
635.38	41.26
635.71	36.41
636.04	67.96
636.38	126.22
636.71	99.52
637.04	99.52
637.38	133.50
637.71	29.13
638.04	-58.25
638.37	9.71
638.70	29.13
639.04	65.53
639.37	38.84
639.70	97.09
640.03	111.65
640.37	77.67
640.70	36.41
641.03	92.23
641.36	116.51
641.69	36.41
642.03	140.78
642.36	9.71
642.69	-7.28
643.02	-43.69
643.35	72.82
643.68	46.12
644.02	72.82
644.35	2.43
644.68	50.97
645.01	133.50
645.34	-16.99
645.67	31.55
646.00	9.71
646.33	84.95
646.67	58.25
647.00	77.67
647.33	123.79
647.66	77.67
647.99	60.68
648.32	184.47
648.65	38.84
648.98	-38.84
649.31	58.25
649.64	29.13
649.97	72.82
650.31	0.00
650.64	-4.85
650.97	48.54
651.30	77.67
651.63	177.19
651.96	135.92
652.29	12.14
652.62	106.80
652.95	9.71
653.28	-70.39
653.61	43.69
653.94	128.64
654.27	-9.71
654.60	-4.85
654.93	184.47
655.26	2.43
655.59	50.97
655.92	97.09
656.25	70.39
656.58	-9.71
656.91	29.13
657.24	-4.85
657.57	29.13
657.90	92.23
658.22	111.65
658.55	-29.13
658.88	123.79
659.21	48.54
659.54	114.08
659.87	60.68
660.20	29.13
660.53	-72.82
660.86	150.49
661.19	89.81
661.52	143.21
661.85	38.84
662.17	206.31
662.50	138.35
662.83	89.81
663.16	29.13
663.49	165.05
663.82	55.83
664.15	-87.38
664.47	46.12
664.80	-19.42
665.13	-14.56
665.46	77.67
665.79	77.67
666.12	70.39
666.44	24.27
666.77	143.21
667.10	72.82
667.43	58.25
667.76	-26.70
668.08	65.53
668.41	152.91
668.74	60.68
669.07	131.07
669.40	145.63
669.72	106.80
670.05	152.92
670.38	118.93
670.71	41.26
671.03	131.07
671.36	135.92
671.69	94.66
672.02	123.79
672.34	111.65
672.67	138.35
673.00	29.13
673.32	201.46
673.65	111.65
673.98	167.48
674.31	240.30
674.63	92.23
674.96	53.40
675.29	109.22
675.61	148.06
675.94	169.91
676.27	94.66
676.59	7.28
676.92	36.41
677.25	123.79
677.57	41.26
677.90	182.04
678.23	12.14
678.55	41.26
678.88	131.07
679.20	109.22
679.53	43.69
679.86	106.80
680.18	80.10
680.51	70.39
680.83	65.53
681.16	75.24
681.49	-29.13
681.81	116.51
682.14	201.46
682.46	63.11
682.79	26.70
683.11	77.67
683.44	48.54
683.77	87.38
684.09	-41.26
684.42	-14.56
684.74	48.54
685.07	101.94
685.39	87.38
685.72	184.47
686.04	99.52
686.37	131.07
686.69	-2.43
687.02	-4.85
687.34	-43.69
687.67	143.21
687.99	50.97
688.32	33.98
688.64	-75.24
688.97	55.83
689.29	72.82
689.62	92.23
689.94	162.62
690.27	-7.28
690.59	53.40
690.91	80.10
691.24	118.93
691.56	-43.69
691.89	-9.71
692.21	55.83
692.54	24.27
692.86	126.22
693.18	109.22
693.51	33.98
693.83	84.95
694.16	60.68
694.48	29.13
694.80	106.80
695.13	-55.83
695.45	77.67
695.78	131.07
696.10	48.54
696.42	48.54
696.75	46.12
697.07	77.67
697.39	118.93
697.72	184.47
698.04	58.25
698.36	67.96
698.69	67.96
699.01	109.22
699.33	82.53
699.66	38.84
699.98	87.38
700.30	63.11
700.62	97.09
700.95	-65.53
701.27	38.84
701.59	92.23
701.92	-21.84
702.24	24.27
702.56	165.05
702.88	199.03
703.21	36.41
703.53	97.09
703.85	31.55
704.17	58.25
704.50	104.37
704.82	60.68
705.14	2660.24
705.46	196.61
705.78	145.63
706.11	46.12
706.43	72.82
706.75	67.96
707.07	75.24
707.39	0.00
707.72	9.71
708.04	7.28
708.36	33.98
708.68	4.85
709.00	97.09
709.32	72.82
709.65	72.82
709.97	41.26
710.29	-2.43
710.61	19.42
710.93	75.24
711.25	41.26
711.57	152.91
711.90	-33.98
712.22	38.84
712.54	-48.54
712.86	12.14
713.18	2.43
713.50	26.70
713.82	-9.71
714.14	77.67
714.46	140.78
714.78	0.00
715.10	48.54
715.42	63.11
715.75	14.56
716.07	12.14
716.39	135.92
716.71	165.05
717.03	94.66
717.35	94.66
717.67	121.36
717.99	-4.85
718.31	72.82
718.63	41.26
718.95	7.28
719.27	60.68
719.59	41.26
719.91	80.10
720.23	216.02
720.55	60.68
720.87	114.08
721.19	41.26
721.51	70.39
721.83	126.22
722.15	145.63
722.47	-48.54
722.78	131.07
723.10	128.64
723.42	63.11
723.74	72.82
724.06	24.27
724.38	41.26
724.70	14.56
725.02	-7.28
725.34	50.97
725.66	75.24
725.98	138.35
726.30	75.24
726.61	-38.84
726.93	-29.13
727.25	24.27
727.57	-63.11
727.89	121.36
728.21	77.67
728.53	63.11
728.84	36.41
729.16	70.39
729.48	12.14
729.80	4.85
730.12	21.84
730.44	111.65
730.75	194.18
731.07	172.33
731.39	50.97
731.71	58.25
732.03	104.37
732.34	160.20
732.66	55.83
732.98	97.09
733.30	87.38
733.62	133.50
733.93	123.79
734.25	75.24
734.57	-24.27
734.89	92.23
735.20	43.69
735.52	67.96
735.84	-36.41
736.16	70.39
736.47	-16.99
736.79	75.24
737.11	67.96
737.42	89.81
737.74	33.98
738.06	43.69
738.38	-7.28
738.69	38.84
739.01	77.67
739.33	128.64
739.64	94.66
739.96	84.95
740.28	4.85
740.59	160.20
740.91	46.12
741.23	-123.79
741.54	46.12
741.86	46.12
742.17	162.62
742.49	-14.56
742.81	70.39
743.12	89.81
743.44	-7.28
743.76	155.34
744.07	31.55
744.39	29.13
744.70	65.53
745.02	63.11
745.34	140.78
745.65	33.98
745.97	150.49
746.28	48.54
746.60	26.70
746.91	46.12
747.23	75.24
747.55	-70.39
747.86	14.56
748.18	26.70
748.49	94.66
748.81	-4.85
749.12	4.85
749.44	104.37
749.75	-14.56
750.07	111.65
750.38	41.26
750.70	46.12
751.01	43.69
751.33	-75.24
751.64	157.77
751.96	55.83
752.27	33.98
752.59	36.41
752.90	38.84
753.22	-33.98
753.53	16.99
753.84	99.52
754.16	84.95
754.47	121.36
754.79	65.53
755.10	116.51
755.42	116.51
755.73	106.80
756.04	99.52
756.36	29.13
756.67	145.63
756.99	-9.71
757.30	24.27
757.61	99.52
757.93	67.96
758.24	14.56
758.55	48.54
758.87	46.12
759.18	-36.41
759.50	24.27
759.81	162.62
760.12	67.96
760.44	-4.85
760.75	12.14
761.06	191.75
761.38	55.83
761.69	38.84
762.00	104.37
762.32	33.98
762.63	133.50
762.94	-16.99
763.25	97.09
763.57	58.25
763.88	60.68
764.19	53.40
764.51	-31.55
764.82	145.63
765.13	145.63
765.44	36.41
765.76	157.77
766.07	-36.41
766.38	43.69
766.69	179.61
767.01	-7.28
767.32	29.13
767.63	92.23
767.94	36.41
768.25	65.54
768.57	7.28
768.88	82.53
769.19	26.70
769.50	89.81
769.81	111.65
770.13	101.94
770.44	89.81
770.75	-48.54
771.06	63.11
771.37	21.84
771.68	65.53
772.00	24.27
772.31	97.09
772.62	65.53
772.93	65.53
773.24	114.08
773.55	12.14
773.86	-72.82
774.17	140.78
774.49	106.80
774.80	-48.54
775.11	-7.28
775.42	50.97
775.73	55.83
776.04	126.22
776.35	38.84
776.66	155.34
776.97	84.95
777.28	97.09
777.59	4.85
777.90	19.42
778.21	4.85
778.52	-31.55
778.83	9.71
779.15	21.84
779.46	131.07
779.77	94.66
780.08	7.28
780.39	14.56
780.70	55.83
781.01	128.64
781.32	104.37
781.63	4.85
781.94	94.66
782.25	16.99
782.56	50.97
782.86	177.19
783.17	65.53
783.48	70.39
783.79	123.79
784.10	87.38
784.41	92.23
784.72	186.90
785.03	43.69
785.34	21.84
785.65	38.84
785.96	31.55
786.27	-50.97
786.58	2.43
786.89	53.40
787.19	38.84
787.50	38.84
787.81	33.98
788.12	118.93
788.43	12.14
788.74	-19.42
789.05	48.54
789.36	133.50
789.66	101.94
789.97	58.25
790.28	77.67
790.59	-33.98
790.90	41.26
791.21	31.55
791.52	9.71
791.82	53.40
792.13	109.22
792.44	-46.12
792.75	41.26
793.06	-9.71
793.36	109.23
793.67	143.21
793.98	70.39
794.29	60.68
794.59	38.84
794.90	133.50
795.21	41.26
795.52	-24.27
795.82	-7.28
796.13	140.78
796.44	4.85
796.75	67.96
797.05	152.91
797.36	-58.25
797.67	12.14
797.98	-26.70
798.28	92.23
798.59	46.12
798.90	29.13
799.20	26.70
799.51	94.66
799.82	104.37
800.12	97.09
800.43	155.34
800.74	65.53
801.04	77.67
801.35	94.66
801.66	9.71
801.96	24.27
802.27	4.85
802.58	87.38
802.88	84.95
803.19	9.71
803.50	89.81
803.80	-7.28
804.11	72.82
804.41	60.68
804.72	58.25
805.03	72.82
805.33	82.53
805.64	89.81
805.94	133.50
806.25	-38.84
806.56	182.04
806.86	143.21
807.17	41.26
807.47	92.23
807.78	58.25
808.08	-26.70
808.39	-26.70
808.69	92.23
809.00	-2.43
809.30	-38.84
809.61	-31.55
809.91	14.56
810.22	75.24
810.52	82.53
810.83	14.56
811.13	-4.85
811.44	16.99
811.74	262.14
812.05	114.08
812.35	36.41
812.66	-31.55
812.96	14.56
813.27	97.09
813.57	140.78
813.88	-7.28
814.18	123.79
814.49	104.37
814.79	82.53
815.09	50.97
815.40	43.69
815.70	43.69
816.01	148.06
816.31	-21.84
816.61	133.50
816.92	36.41
817.22	118.93
817.53	223.30
817.83	94.66
818.13	118.93
818.44	82.53
818.74	-60.68
819.04	-4.85
819.35	26.70
819.65	21.85
819.95	-7.28
820.26	-99.52
820.56	36.41
820.86	109.22
821.17	143.21
821.47	70.39
821.77	14.56
822.08	46.12
822.38	87.38
822.68	-14.56
822.99	94.66
823.29	109.22
823.59	-29.13
823.89	126.22
824.20	-60.68
824.50	131.07
824.80	-19.42
825.10	33.98
825.41	67.96
825.71	50.97
826.01	-31.55
826.31	-29.13
826.62	50.97
826.92	82.53
827.22	48.54
827.52	24.27
827.82	9.71
828.13	29.13
828.43	84.95
828.73	97.09
829.03	-2.43
829.33	165.05
829.64	135.92
829.94	75.24
830.24	14.56
830.54	89.81
830.84	82.53
831.14	63.11
831.45	48.54
831.75	-50.97
832.05	82.53
832.35	-16.99
832.65	123.79
832.95	87.38
833.25	19.42
833.55	36.41
833.85	165.05
834.16	-7.28
834.46	121.36
834.76	77.67
835.06	114.08
835.36	9.71
835.66	60.68
835.96	118.93
836.26	48.54
836.56	43.69
836.86	82.53
837.16	60.68
837.46	-65.53
837.76	19.42
838.06	152.91
838.36	80.10
838.66	9.71
838.96	84.95
839.26	82.53
839.56	63.11
839.86	12.14
840.16	87.38
840.46	77.67
840.76	109.22
841.06	55.83
841.36	58.25
841.66	131.07
841.96	63.11
842.26	109.22
842.56	-43.69
842.86	0.00
843.16	99.52
843.46	50.97
843.76	138.35
844.06	118.93
844.36	72.82
844.66	116.51
844.95	145.63
845.25	106.80
845.55	67.96
845.85	12.14
846.15	-14.56
846.45	-116.51
846.75	-4.85
847.05	121.36
847.35	140.78
847.64	123.79
847.94	184.47
848.24	84.95
848.54	46.12
848.84	50.97
849.14	-48.54
849.43	-33.98
849.73	82.53
850.03	55.83
850.33	70.39
850.63	19.42
850.92	50.97
851.22	94.66
851.52	70.39
851.82	43.69
852.12	48.54
852.41	2.43
852.71	92.23
853.01	-19.42
853.31	80.10
853.60	97.09
853.90	111.65
854.20	-41.26
854.50	111.65
854.79	55.83
855.09	24.27
855.39	-41.26
855.69	133.50
855.98	75.24
856.28	-55.83
856.58	7.28
856.87	50.97
857.17	208.74
857.47	58.25
857.76	116.51
858.06	109.22
858.36	55.83
858.65	2.43
858.95	58.25
859.25	126.22
859.54	77.67
859.84	72.82
860.14	72.82
860.43	43.69
860.73	58.25
861.03	-14.56
861.32	99.52
861.62	94.66
861.91	186.90
862.21	53.40
862.51	46.12
862.80	14.56
863.10	72.82
863.39	33.98
863.69	-46.12
863.98	41.26
864.28	-21.84
864.58	12.14
864.87	31.55
865.17	114.08
865.46	31.55
865.76	16.99
866.05	118.93
866.35	24.27
866.64	24.27
866.94	14.56
867.23	82.53
867.53	9.71
867.82	128.64
868.12	138.35
868.41	55.83
868.71	-123.79
869.00	43.69
869.30	26.70
869.59	106.80
869.89	31.55
870.18	75.24
870.48	89.81
870.77	2.43
871.06	38.84
871.36	92.23
871.65	92.23
871.95	72.82
872.24	87.38
872.54	-58.25
872.83	21.84
873.12	31.55
873.42	-36.41
873.71	9.71
874.01	-33.98
874.30	31.55
874.59	7.28
874.89	-2.43
875.18	-48.54
875.47	89.81
875.77	-29.13
876.06	128.64
876.35	-16.99
876.65	-24.27
876.94	80.10
877.23	106.80
877.53	16.99
877.82	80.10
878.11	99.52
878.41	24.27
878.70	53.40
878.99	82.53
879.29	70.39
879.58	36.41
879.87	46.12
880.16	84.95
880.46	-89.81
880.75	33.98
881.04	41.26
881.34	-16.99
881.63	109.23
881.92	-38.84
882.21	36.41
882.50	21.84
882.80	19.42
883.09	-150.49
883.38	92.23
883.67	89.81
883.97	7.28
884.26	92.23
884.55	2.43
884.84	36.41
885.13	114.08
885.43	133.50
885.72	41.26
886.01	2.43
886.30	89.81
886.59	24.27
886.88	92.23
887.17	26.70
887.47	-19.42
887.76	155.34
888.05	-7.28
888.34	133.50
888.63	133.50
888.92	133.50
>>>>>End Processed Spectral Data<<<<<
